'H2H2      ' Data fetched at http://www.astro.ku.dk/~aborysow/programs/
1000         Ref: Borysow A., Jorgensen U.G., Fu Y. 2001, JQSRT 68, 235
7            Opacity units: cm-1/amagat**2. Mult by 1.38529e-39*n(H2)**2/rho to get cm2/g * matter
                1000.	     2000.      3000.       4000.        5000.       6000.       7000.
   freq(cm-1)   1000K	     2000K      3000K       4000K        5000K       6000K       7000K
   ==============================================================================================
      20.00    0.4675E-08  0.3213E-08  0.2839E-08  0.2917E-08  0.3194E-08  0.3515E-08  0.3867E-08
      40.00    0.1840E-07  0.1279E-07  0.1132E-07  0.1165E-07  0.1276E-07  0.1405E-07  0.1546E-07
      60.00    0.4025E-07  0.2851E-07  0.2535E-07  0.2613E-07  0.2867E-07  0.3157E-07  0.3476E-07
      80.00    0.6895E-07  0.5005E-07  0.4476E-07  0.4626E-07  0.5082E-07  0.5603E-07  0.6171E-07
     100.00    0.1031E-06  0.7705E-07  0.6935E-07  0.7190E-07  0.7911E-07  0.8731E-07  0.9619E-07
     120.00    0.1414E-06  0.1090E-06  0.9888E-07  0.1029E-06  0.1134E-06  0.1253E-06  0.1381E-06
     140.00    0.1828E-06  0.1455E-06  0.1331E-06  0.1390E-06  0.1535E-06  0.1699E-06  0.1874E-06
     160.00    0.2264E-06  0.1862E-06  0.1717E-06  0.1800E-06  0.1993E-06  0.2208E-06  0.2438E-06
     180.00    0.2722E-06  0.2309E-06  0.2146E-06  0.2258E-06  0.2506E-06  0.2780E-06  0.3072E-06
     200.00    0.3198E-06  0.2790E-06  0.2615E-06  0.2761E-06  0.3071E-06  0.3412E-06  0.3774E-06
     220.00    0.3698E-06  0.3305E-06  0.3122E-06  0.3308E-06  0.3687E-06  0.4103E-06  0.4541E-06
     240.00    0.4225E-06  0.3853E-06  0.3665E-06  0.3895E-06  0.4352E-06  0.4852E-06  0.5376E-06
     260.00    0.4784E-06  0.4432E-06  0.4243E-06  0.4524E-06  0.5064E-06  0.5654E-06  0.6271E-06
     280.00    0.5382E-06  0.5041E-06  0.4852E-06  0.5189E-06  0.5821E-06  0.6507E-06  0.7220E-06
     300.00    0.6023E-06  0.5682E-06  0.5492E-06  0.5889E-06  0.6621E-06  0.7413E-06  0.8240E-06
     320.00    0.6723E-06  0.6354E-06  0.6162E-06  0.6625E-06  0.7463E-06  0.8369E-06  0.9300E-06
     340.00    0.7478E-06  0.7056E-06  0.6861E-06  0.7393E-06  0.8347E-06  0.9372E-06  0.1043E-05
     360.00    0.8308E-06  0.7792E-06  0.7589E-06  0.8192E-06  0.9269E-06  0.1043E-05  0.1160E-05
     380.00    0.9224E-06  0.8563E-06  0.8345E-06  0.9025E-06  0.1023E-05  0.1151E-05  0.1283E-05
     400.00    0.1022E-05  0.9370E-06  0.9128E-06  0.9886E-06  0.1123E-05  0.1266E-05  0.1411E-05
     420.00    0.1132E-05  0.1021E-05  0.9939E-06  0.1078E-05  0.1225E-05  0.1383E-05  0.1543E-05
     440.00    0.1254E-05  0.1109E-05  0.1078E-05  0.1170E-05  0.1333E-05  0.1505E-05  0.1680E-05
     460.00    0.1386E-05  0.1201E-05  0.1164E-05  0.1264E-05  0.1442E-05  0.1630E-05  0.1821E-05
     480.00    0.1531E-05  0.1297E-05  0.1253E-05  0.1362E-05  0.1556E-05  0.1760E-05  0.1966E-05
     500.00    0.1686E-05  0.1397E-05  0.1345E-05  0.1462E-05  0.1671E-05  0.1895E-05  0.2116E-05
     520.00    0.1848E-05  0.1500E-05  0.1438E-05  0.1565E-05  0.1791E-05  0.2030E-05  0.2272E-05
     540.00    0.2017E-05  0.1607E-05  0.1535E-05  0.1671E-05  0.1914E-05  0.2172E-05  0.2429E-05
     560.00    0.2184E-05  0.1716E-05  0.1634E-05  0.1779E-05  0.2040E-05  0.2316E-05  0.2592E-05
     580.00    0.2343E-05  0.1828E-05  0.1735E-05  0.1891E-05  0.2169E-05  0.2463E-05  0.2757E-05
     600.00    0.2498E-05  0.1943E-05  0.1838E-05  0.2003E-05  0.2302E-05  0.2614E-05  0.2926E-05
     620.00    0.2645E-05  0.2060E-05  0.1944E-05  0.2121E-05  0.2436E-05  0.2769E-05  0.3100E-05
     640.00    0.2774E-05  0.2179E-05  0.2053E-05  0.2239E-05  0.2575E-05  0.2928E-05  0.3276E-05
     660.00    0.2891E-05  0.2300E-05  0.2164E-05  0.2363E-05  0.2717E-05  0.3089E-05  0.3457E-05
     680.00    0.2998E-05  0.2423E-05  0.2277E-05  0.2487E-05  0.2861E-05  0.3254E-05  0.3642E-05
     700.00    0.3101E-05  0.2549E-05  0.2393E-05  0.2615E-05  0.3008E-05  0.3423E-05  0.3830E-05
     720.00    0.3200E-05  0.2677E-05  0.2513E-05  0.2747E-05  0.3161E-05  0.3595E-05  0.4021E-05
     740.00    0.3299E-05  0.2809E-05  0.2635E-05  0.2879E-05  0.3316E-05  0.3769E-05  0.4216E-05
     760.00    0.3401E-05  0.2944E-05  0.2761E-05  0.3019E-05  0.3473E-05  0.3949E-05  0.4415E-05
     780.00    0.3507E-05  0.3083E-05  0.2890E-05  0.3161E-05  0.3635E-05  0.4130E-05  0.4619E-05
     800.00    0.3615E-05  0.3225E-05  0.3023E-05  0.3306E-05  0.3798E-05  0.4319E-05  0.4825E-05
     820.00    0.3729E-05  0.3372E-05  0.3159E-05  0.3453E-05  0.3968E-05  0.4507E-05  0.5035E-05
     840.00    0.3850E-05  0.3524E-05  0.3299E-05  0.3604E-05  0.4138E-05  0.4701E-05  0.5250E-05
     860.00    0.3975E-05  0.3679E-05  0.3441E-05  0.3760E-05  0.4314E-05  0.4899E-05  0.5467E-05
     880.00    0.4107E-05  0.3838E-05  0.3588E-05  0.3918E-05  0.4492E-05  0.5100E-05  0.5689E-05
     900.00    0.4247E-05  0.4000E-05  0.3737E-05  0.4079E-05  0.4675E-05  0.5305E-05  0.5914E-05
     920.00    0.4396E-05  0.4165E-05  0.3892E-05  0.4249E-05  0.4863E-05  0.5516E-05  0.6144E-05
     940.00    0.4553E-05  0.4333E-05  0.4046E-05  0.4418E-05  0.5053E-05  0.5727E-05  0.6379E-05
     960.00    0.4713E-05  0.4502E-05  0.4206E-05  0.4590E-05  0.5245E-05  0.5945E-05  0.6617E-05
     980.00    0.4872E-05  0.4670E-05  0.4369E-05  0.4765E-05  0.5445E-05  0.6166E-05  0.6860E-05
    1000.00    0.5021E-05  0.4843E-05  0.4587E-05  0.4946E-05  0.5646E-05  0.6392E-05  0.7107E-05
    1020.00    0.5143E-05  0.5006E-05  0.4755E-05  0.5132E-05  0.5850E-05  0.6622E-05  0.7357E-05
    1040.00    0.5241E-05  0.5167E-05  0.4925E-05  0.5315E-05  0.6060E-05  0.6853E-05  0.7614E-05
    1060.00    0.5321E-05  0.5325E-05  0.5097E-05  0.5503E-05  0.6273E-05  0.7095E-05  0.7874E-05
    1080.00    0.5361E-05  0.5478E-05  0.5272E-05  0.5698E-05  0.6491E-05  0.7335E-05  0.8140E-05
    1100.00    0.5365E-05  0.5621E-05  0.5444E-05  0.5892E-05  0.6713E-05  0.7582E-05  0.8408E-05
    1120.00    0.5343E-05  0.5765E-05  0.5615E-05  0.6088E-05  0.6937E-05  0.7834E-05  0.8684E-05
    1140.00    0.5302E-05  0.5898E-05  0.5791E-05  0.6294E-05  0.7165E-05  0.8089E-05  0.8963E-05
    1160.00    0.5248E-05  0.6027E-05  0.5969E-05  0.6495E-05  0.7396E-05  0.8351E-05  0.9247E-05
    1180.00    0.5184E-05  0.6162E-05  0.6145E-05  0.6703E-05  0.7633E-05  0.8616E-05  0.9539E-05
    1200.00    0.5116E-05  0.6291E-05  0.6323E-05  0.6913E-05  0.7869E-05  0.8885E-05  0.9834E-05
    1220.00    0.5046E-05  0.6415E-05  0.6503E-05  0.7126E-05  0.8115E-05  0.9159E-05  0.1013E-04
    1240.00    0.4974E-05  0.6533E-05  0.6684E-05  0.7341E-05  0.8364E-05  0.9440E-05  0.1044E-04
    1260.00    0.4908E-05  0.6664E-05  0.6867E-05  0.7558E-05  0.8616E-05  0.9721E-05  0.1075E-04
    1280.00    0.4845E-05  0.6782E-05  0.7051E-05  0.7778E-05  0.8871E-05  0.1001E-04  0.1107E-04
    1300.00    0.4781E-05  0.6901E-05  0.7233E-05  0.8000E-05  0.9131E-05  0.1031E-04  0.1139E-04
    1320.00    0.4721E-05  0.7020E-05  0.7420E-05  0.8225E-05  0.9392E-05  0.1060E-04  0.1172E-04
    1340.00    0.4664E-05  0.7139E-05  0.7605E-05  0.8456E-05  0.9659E-05  0.1091E-04  0.1205E-04
    1360.00    0.4611E-05  0.7252E-05  0.7786E-05  0.8681E-05  0.9926E-05  0.1121E-04  0.1239E-04
    1380.00    0.4562E-05  0.7358E-05  0.7968E-05  0.8913E-05  0.1020E-04  0.1153E-04  0.1273E-04
    1400.00    0.4512E-05  0.7458E-05  0.8152E-05  0.9143E-05  0.1047E-04  0.1184E-04  0.1309E-04
    1420.00    0.4457E-05  0.7552E-05  0.8327E-05  0.9375E-05  0.1075E-04  0.1216E-04  0.1344E-04
    1440.00    0.4389E-05  0.7638E-05  0.8498E-05  0.9605E-05  0.1104E-04  0.1249E-04  0.1381E-04
    1460.00    0.4317E-05  0.7711E-05  0.8671E-05  0.9838E-05  0.1132E-04  0.1282E-04  0.1418E-04
    1480.00    0.4233E-05  0.7777E-05  0.8839E-05  0.1007E-04  0.1160E-04  0.1316E-04  0.1455E-04
    1500.00    0.4130E-05  0.7829E-05  0.9002E-05  0.1030E-04  0.1189E-04  0.1350E-04  0.1493E-04
    1520.00    0.4014E-05  0.7880E-05  0.9156E-05  0.1053E-04  0.1219E-04  0.1384E-04  0.1532E-04
    1540.00    0.3889E-05  0.7910E-05  0.9311E-05  0.1076E-04  0.1248E-04  0.1419E-04  0.1571E-04
    1560.00    0.3758E-05  0.7938E-05  0.9461E-05  0.1100E-04  0.1278E-04  0.1454E-04  0.1611E-04
    1580.00    0.3625E-05  0.7952E-05  0.9606E-05  0.1123E-04  0.1308E-04  0.1490E-04  0.1652E-04
    1600.00    0.3490E-05  0.7972E-05  0.9751E-05  0.1146E-04  0.1338E-04  0.1526E-04  0.1693E-04
    1620.00    0.3357E-05  0.7976E-05  0.9885E-05  0.1169E-04  0.1368E-04  0.1563E-04  0.1735E-04
    1640.00    0.3226E-05  0.7979E-05  0.1002E-04  0.1192E-04  0.1398E-04  0.1600E-04  0.1777E-04
    1660.00    0.3102E-05  0.7974E-05  0.1015E-04  0.1214E-04  0.1428E-04  0.1637E-04  0.1820E-04
    1680.00    0.2980E-05  0.7975E-05  0.1028E-04  0.1237E-04  0.1459E-04  0.1675E-04  0.1864E-04
    1700.00    0.2862E-05  0.7960E-05  0.1040E-04  0.1259E-04  0.1489E-04  0.1712E-04  0.1908E-04
    1720.00    0.2748E-05  0.7950E-05  0.1053E-04  0.1281E-04  0.1520E-04  0.1751E-04  0.1953E-04
    1740.00    0.2638E-05  0.7925E-05  0.1064E-04  0.1303E-04  0.1551E-04  0.1789E-04  0.1999E-04
    1760.00    0.2532E-05  0.7899E-05  0.1075E-04  0.1324E-04  0.1582E-04  0.1828E-04  0.2044E-04
    1780.00    0.2431E-05  0.7864E-05  0.1085E-04  0.1346E-04  0.1613E-04  0.1868E-04  0.2091E-04
    1800.00    0.2330E-05  0.7827E-05  0.1093E-04  0.1366E-04  0.1643E-04  0.1907E-04  0.2138E-04
    1820.00    0.2232E-05  0.7774E-05  0.1103E-04  0.1387E-04  0.1674E-04  0.1947E-04  0.2186E-04
    1840.00    0.2138E-05  0.7727E-05  0.1111E-04  0.1407E-04  0.1704E-04  0.1987E-04  0.2234E-04
    1860.00    0.2044E-05  0.7672E-05  0.1119E-04  0.1427E-04  0.1735E-04  0.2028E-04  0.2282E-04
    1880.00    0.1950E-05  0.7599E-05  0.1125E-04  0.1446E-04  0.1766E-04  0.2068E-04  0.2332E-04
    1900.00    0.1858E-05  0.7525E-05  0.1131E-04  0.1466E-04  0.1796E-04  0.2109E-04  0.2381E-04
    1920.00    0.1768E-05  0.7445E-05  0.1137E-04  0.1484E-04  0.1827E-04  0.2150E-04  0.2432E-04
    1940.00    0.1680E-05  0.7361E-05  0.1141E-04  0.1502E-04  0.1857E-04  0.2191E-04  0.2482E-04
    1960.00    0.1596E-05  0.7272E-05  0.1145E-04  0.1520E-04  0.1887E-04  0.2233E-04  0.2534E-04
    1980.00    0.1514E-05  0.7181E-05  0.1148E-04  0.1536E-04  0.1916E-04  0.2274E-04  0.2585E-04
    2000.00    0.1444E-05  0.7086E-05  0.1152E-04  0.1553E-04  0.1946E-04  0.2315E-04  0.2637E-04
    2020.00    0.1371E-05  0.6991E-05  0.1154E-04  0.1569E-04  0.1975E-04  0.2357E-04  0.2689E-04
    2040.00    0.1301E-05  0.6891E-05  0.1156E-04  0.1585E-04  0.2004E-04  0.2399E-04  0.2742E-04
    2060.00    0.1234E-05  0.6791E-05  0.1157E-04  0.1600E-04  0.2033E-04  0.2440E-04  0.2795E-04
    2080.00    0.1170E-05  0.6687E-05  0.1158E-04  0.1615E-04  0.2061E-04  0.2482E-04  0.2848E-04
    2100.00    0.1111E-05  0.6583E-05  0.1157E-04  0.1629E-04  0.2089E-04  0.2524E-04  0.2902E-04
    2120.00    0.1053E-05  0.6475E-05  0.1156E-04  0.1642E-04  0.2117E-04  0.2565E-04  0.2956E-04
    2140.00    0.9979E-06  0.6367E-05  0.1156E-04  0.1654E-04  0.2144E-04  0.2607E-04  0.3010E-04
    2160.00    0.9472E-06  0.6257E-05  0.1153E-04  0.1666E-04  0.2171E-04  0.2649E-04  0.3064E-04
    2180.00    0.8984E-06  0.6146E-05  0.1151E-04  0.1678E-04  0.2198E-04  0.2690E-04  0.3118E-04
    2200.00    0.8522E-06  0.6032E-05  0.1147E-04  0.1689E-04  0.2225E-04  0.2732E-04  0.3173E-04
    2220.00    0.8085E-06  0.5918E-05  0.1144E-04  0.1700E-04  0.2251E-04  0.2773E-04  0.3228E-04
    2240.00    0.7673E-06  0.5803E-05  0.1140E-04  0.1709E-04  0.2276E-04  0.2814E-04  0.3282E-04
    2260.00    0.7284E-06  0.5688E-05  0.1135E-04  0.1719E-04  0.2301E-04  0.2854E-04  0.3337E-04
    2280.00    0.6919E-06  0.5574E-05  0.1130E-04  0.1727E-04  0.2326E-04  0.2895E-04  0.3392E-04
    2300.00    0.6576E-06  0.5462E-05  0.1124E-04  0.1736E-04  0.2350E-04  0.2935E-04  0.3446E-04
    2320.00    0.6256E-06  0.5350E-05  0.1118E-04  0.1743E-04  0.2373E-04  0.2976E-04  0.3501E-04
    2340.00    0.5957E-06  0.5240E-05  0.1112E-04  0.1750E-04  0.2397E-04  0.3015E-04  0.3555E-04
    2360.00    0.5681E-06  0.5131E-05  0.1106E-04  0.1757E-04  0.2420E-04  0.3055E-04  0.3609E-04
    2380.00    0.5424E-06  0.5024E-05  0.1098E-04  0.1762E-04  0.2443E-04  0.3094E-04  0.3663E-04
    2400.00    0.5187E-06  0.4919E-05  0.1090E-04  0.1768E-04  0.2464E-04  0.3133E-04  0.3717E-04
    2420.00    0.4970E-06  0.4817E-05  0.1084E-04  0.1773E-04  0.2486E-04  0.3171E-04  0.3770E-04
    2440.00    0.4772E-06  0.4717E-05  0.1076E-04  0.1778E-04  0.2507E-04  0.3210E-04  0.3824E-04
    2460.00    0.4591E-06  0.4620E-05  0.1068E-04  0.1782E-04  0.2527E-04  0.3248E-04  0.3877E-04
    2480.00    0.4428E-06  0.4526E-05  0.1060E-04  0.1786E-04  0.2548E-04  0.3285E-04  0.3929E-04
    2500.00    0.4283E-06  0.4433E-05  0.1051E-04  0.1789E-04  0.2567E-04  0.3322E-04  0.3981E-04
    2520.00    0.4154E-06  0.4346E-05  0.1043E-04  0.1792E-04  0.2587E-04  0.3358E-04  0.4033E-04
    2540.00    0.4040E-06  0.4260E-05  0.1035E-04  0.1796E-04  0.2606E-04  0.3394E-04  0.4083E-04
    2560.00    0.3938E-06  0.4178E-05  0.1027E-04  0.1798E-04  0.2625E-04  0.3430E-04  0.4132E-04
    2580.00    0.3851E-06  0.4099E-05  0.1018E-04  0.1800E-04  0.2643E-04  0.3466E-04  0.4186E-04
    2600.00    0.3775E-06  0.4024E-05  0.1010E-04  0.1802E-04  0.2661E-04  0.3500E-04  0.4235E-04
    2620.00    0.3709E-06  0.3952E-05  0.1002E-04  0.1805E-04  0.2679E-04  0.3535E-04  0.4285E-04
    2640.00    0.3655E-06  0.3884E-05  0.9945E-05  0.1806E-04  0.2697E-04  0.3569E-04  0.4330E-04
    2660.00    0.3611E-06  0.3821E-05  0.9867E-05  0.1809E-04  0.2713E-04  0.3602E-04  0.4380E-04
    2680.00    0.3575E-06  0.3761E-05  0.9795E-05  0.1811E-04  0.2730E-04  0.3635E-04  0.4426E-04
    2700.00    0.3550E-06  0.3704E-05  0.9722E-05  0.1813E-04  0.2747E-04  0.3668E-04  0.4472E-04
    2720.00    0.3539E-06  0.3653E-05  0.9655E-05  0.1815E-04  0.2764E-04  0.3701E-04  0.4518E-04
    2740.00    0.3540E-06  0.3605E-05  0.9587E-05  0.1816E-04  0.2781E-04  0.3733E-04  0.4564E-04
    2760.00    0.3555E-06  0.3564E-05  0.9533E-05  0.1819E-04  0.2797E-04  0.3764E-04  0.4606E-04
    2780.00    0.3585E-06  0.3527E-05  0.9477E-05  0.1822E-04  0.2814E-04  0.3796E-04  0.4653E-04
    2800.00    0.3630E-06  0.3495E-05  0.9428E-05  0.1825E-04  0.2830E-04  0.3827E-04  0.4695E-04
    2820.00    0.3691E-06  0.3469E-05  0.9386E-05  0.1829E-04  0.2847E-04  0.3858E-04  0.4738E-04
    2840.00    0.3769E-06  0.3447E-05  0.9350E-05  0.1833E-04  0.2864E-04  0.3888E-04  0.4780E-04
    2860.00    0.3860E-06  0.3430E-05  0.9329E-05  0.1837E-04  0.2881E-04  0.3918E-04  0.4818E-04
    2880.00    0.3971E-06  0.3421E-05  0.9307E-05  0.1842E-04  0.2899E-04  0.3948E-04  0.4861E-04
    2900.00    0.4097E-06  0.3416E-05  0.9291E-05  0.1848E-04  0.2916E-04  0.3977E-04  0.4899E-04
    2920.00    0.4242E-06  0.3417E-05  0.9291E-05  0.1855E-04  0.2934E-04  0.4007E-04  0.4937E-04
    2940.00    0.4405E-06  0.3425E-05  0.9297E-05  0.1862E-04  0.2952E-04  0.4037E-04  0.4975E-04
    2960.00    0.4587E-06  0.3438E-05  0.9311E-05  0.1871E-04  0.2970E-04  0.4066E-04  0.5014E-04
    2980.00    0.4787E-06  0.3457E-05  0.9339E-05  0.1880E-04  0.2990E-04  0.4095E-04  0.5052E-04
    3000.00    0.5002E-06  0.3482E-05  0.9367E-05  0.1889E-04  0.3009E-04  0.4124E-04  0.5090E-04
    3020.00    0.5229E-06  0.3513E-05  0.9418E-05  0.1900E-04  0.3029E-04  0.4153E-04  0.5124E-04
    3040.00    0.5466E-06  0.3550E-05  0.9476E-05  0.1912E-04  0.3049E-04  0.4182E-04  0.5158E-04
    3060.00    0.5706E-06  0.3592E-05  0.9542E-05  0.1925E-04  0.3071E-04  0.4211E-04  0.5191E-04
    3080.00    0.5941E-06  0.3640E-05  0.9623E-05  0.1939E-04  0.3093E-04  0.4240E-04  0.5230E-04
    3100.00    0.6173E-06  0.3694E-05  0.9712E-05  0.1954E-04  0.3115E-04  0.4269E-04  0.5259E-04
    3120.00    0.6407E-06  0.3756E-05  0.9817E-05  0.1971E-04  0.3139E-04  0.4298E-04  0.5292E-04
    3140.00    0.6636E-06  0.3822E-05  0.9930E-05  0.1988E-04  0.3162E-04  0.4327E-04  0.5326E-04
    3160.00    0.6865E-06  0.3896E-05  0.1006E-04  0.2007E-04  0.3187E-04  0.4355E-04  0.5355E-04
    3180.00    0.7104E-06  0.3976E-05  0.1019E-04  0.2026E-04  0.3212E-04  0.4385E-04  0.5389E-04
    3200.00    0.7362E-06  0.4064E-05  0.1035E-04  0.2048E-04  0.3237E-04  0.4414E-04  0.5417E-04
    3220.00    0.7641E-06  0.4162E-05  0.1052E-04  0.2070E-04  0.3263E-04  0.4443E-04  0.5446E-04
    3240.00    0.7947E-06  0.4267E-05  0.1069E-04  0.2093E-04  0.3290E-04  0.4472E-04  0.5475E-04
    3260.00    0.8286E-06  0.4381E-05  0.1089E-04  0.2118E-04  0.3318E-04  0.4500E-04  0.5503E-04
    3280.00    0.8663E-06  0.4504E-05  0.1110E-04  0.2142E-04  0.3346E-04  0.4529E-04  0.5532E-04
    3300.00    0.9076E-06  0.4637E-05  0.1131E-04  0.2170E-04  0.3375E-04  0.4557E-04  0.5556E-04
    3320.00    0.9525E-06  0.4781E-05  0.1156E-04  0.2197E-04  0.3404E-04  0.4586E-04  0.5584E-04
    3340.00    0.1002E-05  0.4934E-05  0.1180E-04  0.2226E-04  0.3433E-04  0.4614E-04  0.5607E-04
    3360.00    0.1056E-05  0.5100E-05  0.1206E-04  0.2255E-04  0.3462E-04  0.4642E-04  0.5631E-04
    3380.00    0.1113E-05  0.5275E-05  0.1234E-04  0.2286E-04  0.3493E-04  0.4669E-04  0.5654E-04
    3400.00    0.1177E-05  0.5463E-05  0.1263E-04  0.2317E-04  0.3522E-04  0.4695E-04  0.5677E-04
    3420.00    0.1247E-05  0.5661E-05  0.1292E-04  0.2349E-04  0.3553E-04  0.4721E-04  0.5700E-04
    3440.00    0.1322E-05  0.5871E-05  0.1323E-04  0.2382E-04  0.3582E-04  0.4747E-04  0.5718E-04
    3460.00    0.1403E-05  0.6094E-05  0.1355E-04  0.2415E-04  0.3612E-04  0.4772E-04  0.5736E-04
    3480.00    0.1489E-05  0.6327E-05  0.1388E-04  0.2449E-04  0.3642E-04  0.4796E-04  0.5753E-04
    3500.00    0.1582E-05  0.6573E-05  0.1422E-04  0.2483E-04  0.3672E-04  0.4819E-04  0.5771E-04
    3520.00    0.1678E-05  0.6831E-05  0.1457E-04  0.2517E-04  0.3701E-04  0.4841E-04  0.5783E-04
    3540.00    0.1779E-05  0.7100E-05  0.1493E-04  0.2551E-04  0.3729E-04  0.4862E-04  0.5800E-04
    3560.00    0.1882E-05  0.7379E-05  0.1530E-04  0.2585E-04  0.3757E-04  0.4882E-04  0.5807E-04
    3580.00    0.1989E-05  0.7671E-05  0.1567E-04  0.2620E-04  0.3784E-04  0.4901E-04  0.5818E-04
    3600.00    0.2100E-05  0.7973E-05  0.1604E-04  0.2653E-04  0.3810E-04  0.4918E-04  0.5830E-04
    3620.00    0.2214E-05  0.8285E-05  0.1642E-04  0.2687E-04  0.3835E-04  0.4934E-04  0.5836E-04
    3640.00    0.2335E-05  0.8608E-05  0.1680E-04  0.2720E-04  0.3859E-04  0.4948E-04  0.5837E-04
    3660.00    0.2463E-05  0.8941E-05  0.1718E-04  0.2752E-04  0.3882E-04  0.4961E-04  0.5842E-04
    3680.00    0.2603E-05  0.9283E-05  0.1756E-04  0.2783E-04  0.3903E-04  0.4972E-04  0.5842E-04
    3700.00    0.2755E-05  0.9637E-05  0.1795E-04  0.2814E-04  0.3923E-04  0.4980E-04  0.5842E-04
    3720.00    0.2918E-05  0.1000E-04  0.1832E-04  0.2843E-04  0.3941E-04  0.4988E-04  0.5837E-04
    3740.00    0.3099E-05  0.1036E-04  0.1869E-04  0.2871E-04  0.3957E-04  0.4994E-04  0.5836E-04
    3760.00    0.3293E-05  0.1074E-04  0.1905E-04  0.2897E-04  0.3972E-04  0.4996E-04  0.5824E-04
    3780.00    0.3505E-05  0.1112E-04  0.1941E-04  0.2923E-04  0.3985E-04  0.4998E-04  0.5818E-04
    3800.00    0.3733E-05  0.1150E-04  0.1975E-04  0.2947E-04  0.3997E-04  0.4997E-04  0.5806E-04
    3820.00    0.3980E-05  0.1188E-04  0.2009E-04  0.2968E-04  0.4006E-04  0.4994E-04  0.5793E-04
    3840.00    0.4243E-05  0.1226E-04  0.2042E-04  0.2988E-04  0.4012E-04  0.4990E-04  0.5775E-04
    3860.00    0.4523E-05  0.1264E-04  0.2072E-04  0.3006E-04  0.4017E-04  0.4982E-04  0.5762E-04
    3880.00    0.4820E-05  0.1302E-04  0.2101E-04  0.3021E-04  0.4020E-04  0.4973E-04  0.5737E-04
    3900.00    0.5133E-05  0.1339E-04  0.2128E-04  0.3035E-04  0.4020E-04  0.4962E-04  0.5718E-04
    3920.00    0.5461E-05  0.1375E-04  0.2153E-04  0.3046E-04  0.4017E-04  0.4948E-04  0.5693E-04
    3940.00    0.5802E-05  0.1410E-04  0.2176E-04  0.3055E-04  0.4013E-04  0.4932E-04  0.5667E-04
    3960.00    0.6153E-05  0.1443E-04  0.2196E-04  0.3061E-04  0.4007E-04  0.4913E-04  0.5641E-04
    3980.00    0.6511E-05  0.1475E-04  0.2214E-04  0.3065E-04  0.3998E-04  0.4894E-04  0.5609E-04
    4000.00    0.6870E-05  0.1503E-04  0.2229E-04  0.3066E-04  0.3986E-04  0.4871E-04  0.5578E-04
    4020.00    0.7220E-05  0.1529E-04  0.2242E-04  0.3065E-04  0.3972E-04  0.4846E-04  0.5544E-04
    4040.00    0.7561E-05  0.1554E-04  0.2251E-04  0.3060E-04  0.3956E-04  0.4820E-04  0.5508E-04
    4060.00    0.7882E-05  0.1574E-04  0.2258E-04  0.3054E-04  0.3938E-04  0.4791E-04  0.5471E-04
    4080.00    0.8173E-05  0.1591E-04  0.2261E-04  0.3045E-04  0.3917E-04  0.4760E-04  0.5432E-04
    4100.00    0.8426E-05  0.1605E-04  0.2262E-04  0.3033E-04  0.3895E-04  0.4728E-04  0.5391E-04
    4120.00    0.8629E-05  0.1614E-04  0.2260E-04  0.3019E-04  0.3869E-04  0.4693E-04  0.5347E-04
    4140.00    0.8780E-05  0.1620E-04  0.2254E-04  0.3002E-04  0.3842E-04  0.4657E-04  0.5303E-04
    4160.00    0.8877E-05  0.1621E-04  0.2246E-04  0.2984E-04  0.3813E-04  0.4619E-04  0.5258E-04
    4180.00    0.8920E-05  0.1620E-04  0.2233E-04  0.2962E-04  0.3782E-04  0.4580E-04  0.5210E-04
    4200.00    0.8906E-05  0.1614E-04  0.2219E-04  0.2939E-04  0.3750E-04  0.4538E-04  0.5162E-04
    4220.00    0.8841E-05  0.1605E-04  0.2203E-04  0.2913E-04  0.3715E-04  0.4496E-04  0.5112E-04
    4240.00    0.8731E-05  0.1593E-04  0.2183E-04  0.2886E-04  0.3679E-04  0.4452E-04  0.5061E-04
    4260.00    0.8587E-05  0.1578E-04  0.2161E-04  0.2857E-04  0.3642E-04  0.4406E-04  0.5010E-04
    4280.00    0.8414E-05  0.1560E-04  0.2138E-04  0.2825E-04  0.3603E-04  0.4360E-04  0.4956E-04
    4300.00    0.8219E-05  0.1540E-04  0.2112E-04  0.2793E-04  0.3563E-04  0.4313E-04  0.4903E-04
    4320.00    0.8008E-05  0.1519E-04  0.2085E-04  0.2760E-04  0.3522E-04  0.4264E-04  0.4848E-04
    4340.00    0.7787E-05  0.1495E-04  0.2057E-04  0.2725E-04  0.3480E-04  0.4216E-04  0.4793E-04
    4360.00    0.7560E-05  0.1470E-04  0.2026E-04  0.2688E-04  0.3437E-04  0.4165E-04  0.4736E-04
    4380.00    0.7331E-05  0.1444E-04  0.1995E-04  0.2652E-04  0.3393E-04  0.4115E-04  0.4679E-04
    4400.00    0.7103E-05  0.1417E-04  0.1962E-04  0.2614E-04  0.3348E-04  0.4064E-04  0.4622E-04
    4420.00    0.6878E-05  0.1390E-04  0.1930E-04  0.2576E-04  0.3303E-04  0.4013E-04  0.4565E-04
    4440.00    0.6659E-05  0.1362E-04  0.1895E-04  0.2537E-04  0.3257E-04  0.3960E-04  0.4507E-04
    4460.00    0.6446E-05  0.1334E-04  0.1861E-04  0.2497E-04  0.3211E-04  0.3907E-04  0.4449E-04
    4480.00    0.6242E-05  0.1304E-04  0.1826E-04  0.2456E-04  0.3165E-04  0.3855E-04  0.4391E-04
    4500.00    0.6047E-05  0.1275E-04  0.1790E-04  0.2417E-04  0.3118E-04  0.3801E-04  0.4332E-04
    4520.00    0.5862E-05  0.1247E-04  0.1754E-04  0.2376E-04  0.3071E-04  0.3749E-04  0.4274E-04
    4540.00    0.5689E-05  0.1218E-04  0.1719E-04  0.2334E-04  0.3024E-04  0.3695E-04  0.4215E-04
    4560.00    0.5526E-05  0.1189E-04  0.1682E-04  0.2294E-04  0.2977E-04  0.3642E-04  0.4157E-04
    4580.00    0.5376E-05  0.1160E-04  0.1647E-04  0.2254E-04  0.2930E-04  0.3589E-04  0.4098E-04
    4600.00    0.5236E-05  0.1132E-04  0.1612E-04  0.2214E-04  0.2883E-04  0.3535E-04  0.4040E-04
    4620.00    0.5106E-05  0.1105E-04  0.1576E-04  0.2173E-04  0.2836E-04  0.3483E-04  0.3981E-04
    4640.00    0.4984E-05  0.1078E-04  0.1540E-04  0.2133E-04  0.2790E-04  0.3430E-04  0.3924E-04
    4660.00    0.4868E-05  0.1050E-04  0.1506E-04  0.2094E-04  0.2743E-04  0.3377E-04  0.3865E-04
    4680.00    0.4754E-05  0.1024E-04  0.1472E-04  0.2054E-04  0.2698E-04  0.3326E-04  0.3808E-04
    4700.00    0.4641E-05  0.9988E-05  0.1437E-04  0.2016E-04  0.2652E-04  0.3274E-04  0.3751E-04
    4720.00    0.4524E-05  0.9732E-05  0.1404E-04  0.1977E-04  0.2607E-04  0.3222E-04  0.3694E-04
    4740.00    0.4407E-05  0.9488E-05  0.1372E-04  0.1939E-04  0.2562E-04  0.3171E-04  0.3638E-04
    4760.00    0.4286E-05  0.9245E-05  0.1339E-04  0.1901E-04  0.2517E-04  0.3121E-04  0.3582E-04
    4780.00    0.4164E-05  0.9007E-05  0.1307E-04  0.1865E-04  0.2474E-04  0.3071E-04  0.3527E-04
    4800.00    0.4040E-05  0.8776E-05  0.1276E-04  0.1828E-04  0.2430E-04  0.3021E-04  0.3471E-04
    4820.00    0.3918E-05  0.8551E-05  0.1245E-04  0.1793E-04  0.2387E-04  0.2972E-04  0.3417E-04
    4840.00    0.3800E-05  0.8332E-05  0.1217E-04  0.1758E-04  0.2345E-04  0.2923E-04  0.3363E-04
    4860.00    0.3687E-05  0.8119E-05  0.1187E-04  0.1724E-04  0.2304E-04  0.2876E-04  0.3310E-04
    4880.00    0.3579E-05  0.7912E-05  0.1159E-04  0.1690E-04  0.2262E-04  0.2828E-04  0.3257E-04
    4900.00    0.3477E-05  0.7713E-05  0.1131E-04  0.1657E-04  0.2221E-04  0.2781E-04  0.3205E-04
    4920.00    0.3380E-05  0.7520E-05  0.1104E-04  0.1624E-04  0.2182E-04  0.2735E-04  0.3153E-04
    4940.00    0.3290E-05  0.7333E-05  0.1079E-04  0.1593E-04  0.2142E-04  0.2689E-04  0.3102E-04
    4960.00    0.3206E-05  0.7153E-05  0.1053E-04  0.1562E-04  0.2104E-04  0.2645E-04  0.3052E-04
    4980.00    0.3127E-05  0.6978E-05  0.1028E-04  0.1531E-04  0.2066E-04  0.2600E-04  0.3002E-04
    5000.00    0.3053E-05  0.6810E-05  0.1005E-04  0.1501E-04  0.2028E-04  0.2557E-04  0.2953E-04
    5020.00    0.2984E-05  0.6648E-05  0.9819E-05  0.1472E-04  0.1991E-04  0.2513E-04  0.2904E-04
    5040.00    0.2918E-05  0.6490E-05  0.9600E-05  0.1444E-04  0.1955E-04  0.2471E-04  0.2857E-04
    5060.00    0.2855E-05  0.6337E-05  0.9372E-05  0.1415E-04  0.1920E-04  0.2429E-04  0.2809E-04
    5080.00    0.2794E-05  0.6188E-05  0.9162E-05  0.1388E-04  0.1884E-04  0.2387E-04  0.2762E-04
    5100.00    0.2730E-05  0.6041E-05  0.8960E-05  0.1361E-04  0.1851E-04  0.2347E-04  0.2717E-04
    5120.00    0.2666E-05  0.5899E-05  0.8762E-05  0.1335E-04  0.1817E-04  0.2307E-04  0.2671E-04
    5140.00    0.2599E-05  0.5759E-05  0.8568E-05  0.1309E-04  0.1784E-04  0.2268E-04  0.2627E-04
    5160.00    0.2527E-05  0.5621E-05  0.8380E-05  0.1284E-04  0.1751E-04  0.2229E-04  0.2583E-04
    5180.00    0.2452E-05  0.5486E-05  0.8196E-05  0.1260E-04  0.1719E-04  0.2191E-04  0.2539E-04
    5200.00    0.2373E-05  0.5354E-05  0.8019E-05  0.1236E-04  0.1688E-04  0.2154E-04  0.2497E-04
    5220.00    0.2292E-05  0.5224E-05  0.7845E-05  0.1213E-04  0.1657E-04  0.2116E-04  0.2455E-04
    5240.00    0.2210E-05  0.5097E-05  0.7677E-05  0.1190E-04  0.1627E-04  0.2080E-04  0.2413E-04
    5260.00    0.2128E-05  0.4972E-05  0.7513E-05  0.1167E-04  0.1596E-04  0.2045E-04  0.2372E-04
    5280.00    0.2046E-05  0.4851E-05  0.7353E-05  0.1145E-04  0.1568E-04  0.2008E-04  0.2332E-04
    5300.00    0.1967E-05  0.4732E-05  0.7198E-05  0.1123E-04  0.1540E-04  0.1974E-04  0.2293E-04
    5320.00    0.1890E-05  0.4616E-05  0.7046E-05  0.1101E-04  0.1512E-04  0.1940E-04  0.2253E-04
    5340.00    0.1815E-05  0.4504E-05  0.6899E-05  0.1081E-04  0.1483E-04  0.1907E-04  0.2215E-04
    5360.00    0.1742E-05  0.4394E-05  0.6755E-05  0.1061E-04  0.1457E-04  0.1874E-04  0.2177E-04
    5380.00    0.1673E-05  0.4286E-05  0.6615E-05  0.1040E-04  0.1430E-04  0.1841E-04  0.2140E-04
    5400.00    0.1606E-05  0.4180E-05  0.6478E-05  0.1021E-04  0.1404E-04  0.1809E-04  0.2103E-04
    5420.00    0.1541E-05  0.4077E-05  0.6344E-05  0.1002E-04  0.1377E-04  0.1778E-04  0.2066E-04
    5440.00    0.1478E-05  0.3974E-05  0.6211E-05  0.9823E-05  0.1352E-04  0.1747E-04  0.2031E-04
    5460.00    0.1418E-05  0.3874E-05  0.6083E-05  0.9646E-05  0.1328E-04  0.1716E-04  0.1996E-04
    5480.00    0.1359E-05  0.3775E-05  0.5955E-05  0.9459E-05  0.1303E-04  0.1686E-04  0.1961E-04
    5500.00    0.1302E-05  0.3678E-05  0.5831E-05  0.9272E-05  0.1278E-04  0.1656E-04  0.1927E-04
    5520.00    0.1246E-05  0.3580E-05  0.5709E-05  0.9093E-05  0.1255E-04  0.1628E-04  0.1894E-04
    5540.00    0.1191E-05  0.3486E-05  0.5587E-05  0.8922E-05  0.1232E-04  0.1599E-04  0.1861E-04
    5560.00    0.1137E-05  0.3392E-05  0.5469E-05  0.8750E-05  0.1209E-04  0.1570E-04  0.1828E-04
    5580.00    0.1085E-05  0.3299E-05  0.5352E-05  0.8582E-05  0.1187E-04  0.1542E-04  0.1797E-04
    5600.00    0.1034E-05  0.3208E-05  0.5238E-05  0.8415E-05  0.1165E-04  0.1515E-04  0.1765E-04
    5620.00    0.9837E-06  0.3118E-05  0.5124E-05  0.8250E-05  0.1143E-04  0.1488E-04  0.1734E-04
    5640.00    0.9352E-06  0.3029E-05  0.5013E-05  0.8087E-05  0.1121E-04  0.1461E-04  0.1703E-04
    5660.00    0.8880E-06  0.2941E-05  0.4902E-05  0.7927E-05  0.1100E-04  0.1435E-04  0.1673E-04
    5680.00    0.8423E-06  0.2855E-05  0.4794E-05  0.7770E-05  0.1079E-04  0.1410E-04  0.1643E-04
    5700.00    0.7981E-06  0.2770E-05  0.4686E-05  0.7613E-05  0.1058E-04  0.1384E-04  0.1614E-04
    5720.00    0.7555E-06  0.2687E-05  0.4581E-05  0.7459E-05  0.1037E-04  0.1358E-04  0.1584E-04
    5740.00    0.7147E-06  0.2605E-05  0.4476E-05  0.7307E-05  0.1018E-04  0.1334E-04  0.1556E-04
    5760.00    0.6756E-06  0.2525E-05  0.4373E-05  0.7157E-05  0.9972E-05  0.1310E-04  0.1528E-04
    5780.00    0.6384E-06  0.2445E-05  0.4271E-05  0.7009E-05  0.9791E-05  0.1285E-04  0.1500E-04
    5800.00    0.6032E-06  0.2368E-05  0.4171E-05  0.6862E-05  0.9593E-05  0.1261E-04  0.1473E-04
    5820.00    0.5697E-06  0.2292E-05  0.4070E-05  0.6718E-05  0.9402E-05  0.1238E-04  0.1446E-04
    5840.00    0.5379E-06  0.2216E-05  0.3973E-05  0.6575E-05  0.9211E-05  0.1214E-04  0.1419E-04
    5860.00    0.5078E-06  0.2144E-05  0.3875E-05  0.6434E-05  0.9028E-05  0.1192E-04  0.1393E-04
    5880.00    0.4792E-06  0.2072E-05  0.3779E-05  0.6295E-05  0.8852E-05  0.1169E-04  0.1368E-04
    5900.00    0.4522E-06  0.2002E-05  0.3684E-05  0.6157E-05  0.8667E-05  0.1146E-04  0.1342E-04
    5920.00    0.4266E-06  0.1933E-05  0.3591E-05  0.6021E-05  0.8490E-05  0.1124E-04  0.1317E-04
    5940.00    0.4024E-06  0.1866E-05  0.3498E-05  0.5888E-05  0.8313E-05  0.1103E-04  0.1292E-04
    5960.00    0.3794E-06  0.1800E-05  0.3407E-05  0.5755E-05  0.8144E-05  0.1081E-04  0.1268E-04
    5980.00    0.3577E-06  0.1734E-05  0.3316E-05  0.5624E-05  0.7974E-05  0.1060E-04  0.1244E-04
    6000.00    0.3374E-06  0.1683E-05  0.3267E-05  0.5569E-05  0.7914E-05  0.1053E-04  0.1238E-04
    6020.00    0.3178E-06  0.1622E-05  0.3181E-05  0.5442E-05  0.7751E-05  0.1033E-04  0.1215E-04
    6040.00    0.2992E-06  0.1561E-05  0.3094E-05  0.5317E-05  0.7587E-05  0.1013E-04  0.1192E-04
    6060.00    0.2818E-06  0.1505E-05  0.3010E-05  0.5194E-05  0.7427E-05  0.9930E-05  0.1169E-04
    6080.00    0.2651E-06  0.1448E-05  0.2927E-05  0.5072E-05  0.7268E-05  0.9729E-05  0.1146E-04
    6100.00    0.2494E-06  0.1393E-05  0.2845E-05  0.4952E-05  0.7113E-05  0.9536E-05  0.1125E-04
    6120.00    0.2347E-06  0.1339E-05  0.2764E-05  0.4834E-05  0.6958E-05  0.9342E-05  0.1103E-04
    6140.00    0.2208E-06  0.1288E-05  0.2686E-05  0.4717E-05  0.6807E-05  0.9147E-05  0.1081E-04
    6160.00    0.2078E-06  0.1238E-05  0.2608E-05  0.4603E-05  0.6657E-05  0.8967E-05  0.1061E-04
    6180.00    0.1954E-06  0.1190E-05  0.2532E-05  0.4490E-05  0.6510E-05  0.8787E-05  0.1039E-04
    6200.00    0.1840E-06  0.1143E-05  0.2458E-05  0.4379E-05  0.6364E-05  0.8598E-05  0.1019E-04
    6220.00    0.1730E-06  0.1097E-05  0.2384E-05  0.4269E-05  0.6222E-05  0.8424E-05  0.9993E-05
    6240.00    0.1629E-06  0.1054E-05  0.2313E-05  0.4161E-05  0.6080E-05  0.8249E-05  0.9792E-05
    6260.00    0.1532E-06  0.1011E-05  0.2243E-05  0.4055E-05  0.5941E-05  0.8074E-05  0.9598E-05
    6280.00    0.1442E-06  0.9703E-06  0.2174E-05  0.3951E-05  0.5805E-05  0.7906E-05  0.9403E-05
    6300.00    0.1358E-06  0.9308E-06  0.2106E-05  0.3850E-05  0.5671E-05  0.7735E-05  0.9214E-05
    6320.00    0.1279E-06  0.8926E-06  0.2041E-05  0.3749E-05  0.5538E-05  0.7569E-05  0.9025E-05
    6340.00    0.1203E-06  0.8560E-06  0.1977E-05  0.3650E-05  0.5409E-05  0.7406E-05  0.8835E-05
    6360.00    0.1133E-06  0.8206E-06  0.1914E-05  0.3554E-05  0.5281E-05  0.7245E-05  0.8658E-05
    6380.00    0.1068E-06  0.7865E-06  0.1853E-05  0.3459E-05  0.5156E-05  0.7088E-05  0.8482E-05
    6400.00    0.1006E-06  0.7537E-06  0.1794E-05  0.3367E-05  0.5032E-05  0.6932E-05  0.8304E-05
    6420.00    0.9479E-07  0.7222E-06  0.1735E-05  0.3276E-05  0.4911E-05  0.6779E-05  0.8134E-05
    6440.00    0.8935E-07  0.6918E-06  0.1680E-05  0.3187E-05  0.4792E-05  0.6629E-05  0.7962E-05
    6460.00    0.8425E-07  0.6627E-06  0.1625E-05  0.3100E-05  0.4676E-05  0.6481E-05  0.7790E-05
    6480.00    0.7949E-07  0.6348E-06  0.1571E-05  0.3015E-05  0.4561E-05  0.6335E-05  0.7633E-05
    6500.00    0.7502E-07  0.6080E-06  0.1520E-05  0.2932E-05  0.4448E-05  0.6192E-05  0.7467E-05
    6520.00    0.7083E-07  0.5823E-06  0.1469E-05  0.2851E-05  0.4337E-05  0.6052E-05  0.7308E-05
    6540.00    0.6692E-07  0.5575E-06  0.1421E-05  0.2771E-05  0.4230E-05  0.5914E-05  0.7152E-05
    6560.00    0.6326E-07  0.5339E-06  0.1372E-05  0.2693E-05  0.4124E-05  0.5779E-05  0.6998E-05
    6580.00    0.5985E-07  0.5113E-06  0.1326E-05  0.2617E-05  0.4020E-05  0.5646E-05  0.6847E-05
    6600.00    0.5666E-07  0.4895E-06  0.1282E-05  0.2543E-05  0.3918E-05  0.5515E-05  0.6698E-05
    6620.00    0.5368E-07  0.4689E-06  0.1238E-05  0.2470E-05  0.3818E-05  0.5388E-05  0.6553E-05
    6640.00    0.5091E-07  0.4490E-06  0.1196E-05  0.2400E-05  0.3721E-05  0.5262E-05  0.6409E-05
    6660.00    0.4832E-07  0.4300E-06  0.1156E-05  0.2331E-05  0.3626E-05  0.5138E-05  0.6268E-05
    6680.00    0.4592E-07  0.4118E-06  0.1116E-05  0.2264E-05  0.3532E-05  0.5018E-05  0.6130E-05
    6700.00    0.4367E-07  0.3944E-06  0.1079E-05  0.2199E-05  0.3440E-05  0.4899E-05  0.5994E-05
    6720.00    0.4159E-07  0.3779E-06  0.1042E-05  0.2135E-05  0.3351E-05  0.4782E-05  0.5861E-05
    6740.00    0.3966E-07  0.3620E-06  0.1006E-05  0.2073E-05  0.3264E-05  0.4668E-05  0.5730E-05
    6760.00    0.3785E-07  0.3470E-06  0.9715E-06  0.2012E-05  0.3178E-05  0.4555E-05  0.5602E-05
    6780.00    0.3618E-07  0.3326E-06  0.9378E-06  0.1954E-05  0.3094E-05  0.4447E-05  0.5477E-05
    6800.00    0.3463E-07  0.3189E-06  0.9058E-06  0.1896E-05  0.3012E-05  0.4339E-05  0.5353E-05
    6820.00    0.3319E-07  0.3058E-06  0.8747E-06  0.1840E-05  0.2933E-05  0.4234E-05  0.5232E-05
    6840.00    0.3188E-07  0.2933E-06  0.8448E-06  0.1786E-05  0.2854E-05  0.4132E-05  0.5113E-05
    6860.00    0.3067E-07  0.2816E-06  0.8158E-06  0.1733E-05  0.2779E-05  0.4031E-05  0.4996E-05
    6880.00    0.2957E-07  0.2704E-06  0.7880E-06  0.1682E-05  0.2704E-05  0.3932E-05  0.4883E-05
    6900.00    0.2857E-07  0.2597E-06  0.7612E-06  0.1632E-05  0.2631E-05  0.3836E-05  0.4771E-05
    6920.00    0.2766E-07  0.2495E-06  0.7354E-06  0.1585E-05  0.2561E-05  0.3742E-05  0.4661E-05
    6940.00    0.2686E-07  0.2398E-06  0.7105E-06  0.1537E-05  0.2492E-05  0.3649E-05  0.4554E-05
    6960.00    0.2614E-07  0.2306E-06  0.6865E-06  0.1492E-05  0.2425E-05  0.3560E-05  0.4449E-05
    6980.00    0.2550E-07  0.2219E-06  0.6635E-06  0.1448E-05  0.2358E-05  0.3471E-05  0.4345E-05
    7000.00    0.2492E-07  0.2136E-06  0.6413E-06  0.1404E-05  0.2295E-05  0.3385E-05  0.4245E-05
    7020.00    0.2443E-07  0.2056E-06  0.6199E-06  0.1362E-05  0.2233E-05  0.3300E-05  0.4146E-05
    7040.00    0.2400E-07  0.1982E-06  0.5995E-06  0.1323E-05  0.2172E-05  0.3219E-05  0.4050E-05
    7060.00    0.2364E-07  0.1912E-06  0.5797E-06  0.1284E-05  0.2113E-05  0.3138E-05  0.3955E-05
    7080.00    0.2335E-07  0.1845E-06  0.5608E-06  0.1246E-05  0.2056E-05  0.3059E-05  0.3862E-05
    7100.00    0.2312E-07  0.1781E-06  0.5427E-06  0.1209E-05  0.1999E-05  0.2982E-05  0.3771E-05
    7120.00    0.2296E-07  0.1721E-06  0.5251E-06  0.1174E-05  0.1944E-05  0.2908E-05  0.3683E-05
    7140.00    0.2285E-07  0.1663E-06  0.5084E-06  0.1139E-05  0.1891E-05  0.2835E-05  0.3597E-05
    7160.00    0.2278E-07  0.1610E-06  0.4923E-06  0.1106E-05  0.1840E-05  0.2764E-05  0.3512E-05
    7180.00    0.2275E-07  0.1558E-06  0.4769E-06  0.1074E-05  0.1789E-05  0.2695E-05  0.3430E-05
    7200.00    0.2273E-07  0.1510E-06  0.4621E-06  0.1042E-05  0.1741E-05  0.2626E-05  0.3348E-05
    7220.00    0.2273E-07  0.1465E-06  0.4480E-06  0.1012E-05  0.1694E-05  0.2559E-05  0.3269E-05
    7240.00    0.2272E-07  0.1420E-06  0.4344E-06  0.9825E-06  0.1648E-05  0.2496E-05  0.3193E-05
    7260.00    0.2272E-07  0.1380E-06  0.4213E-06  0.9544E-06  0.1603E-05  0.2433E-05  0.3117E-05
    7280.00    0.2272E-07  0.1341E-06  0.4090E-06  0.9271E-06  0.1559E-05  0.2371E-05  0.3043E-05
    7300.00    0.2273E-07  0.1303E-06  0.3970E-06  0.9009E-06  0.1517E-05  0.2312E-05  0.2971E-05
    7320.00    0.2278E-07  0.1269E-06  0.3855E-06  0.8753E-06  0.1476E-05  0.2253E-05  0.2902E-05
    7340.00    0.2286E-07  0.1237E-06  0.3746E-06  0.8506E-06  0.1436E-05  0.2197E-05  0.2832E-05
    7360.00    0.2298E-07  0.1206E-06  0.3642E-06  0.8269E-06  0.1398E-05  0.2142E-05  0.2766E-05
    7380.00    0.2316E-07  0.1177E-06  0.3542E-06  0.8039E-06  0.1360E-05  0.2087E-05  0.2700E-05
    7400.00    0.2338E-07  0.1150E-06  0.3447E-06  0.7815E-06  0.1324E-05  0.2035E-05  0.2637E-05
    7420.00    0.2364E-07  0.1126E-06  0.3356E-06  0.7601E-06  0.1288E-05  0.1983E-05  0.2574E-05
    7440.00    0.2394E-07  0.1102E-06  0.3268E-06  0.7394E-06  0.1254E-05  0.1934E-05  0.2514E-05
    7460.00    0.2427E-07  0.1080E-06  0.3184E-06  0.7192E-06  0.1220E-05  0.1886E-05  0.2454E-05
    7480.00    0.2462E-07  0.1060E-06  0.3105E-06  0.6999E-06  0.1189E-05  0.1838E-05  0.2397E-05
    7500.00    0.2499E-07  0.1041E-06  0.3029E-06  0.6812E-06  0.1157E-05  0.1792E-05  0.2341E-05
    7520.00    0.2540E-07  0.1023E-06  0.2956E-06  0.6630E-06  0.1126E-05  0.1747E-05  0.2286E-05
    7540.00    0.2582E-07  0.1008E-06  0.2886E-06  0.6455E-06  0.1097E-05  0.1704E-05  0.2232E-05
    7560.00    0.2628E-07  0.9933E-07  0.2820E-06  0.6286E-06  0.1068E-05  0.1662E-05  0.2180E-05
    7580.00    0.2678E-07  0.9799E-07  0.2756E-06  0.6122E-06  0.1040E-05  0.1620E-05  0.2129E-05
    7600.00    0.2732E-07  0.9676E-07  0.2695E-06  0.5964E-06  0.1013E-05  0.1580E-05  0.2079E-05
    7620.00    0.2788E-07  0.9565E-07  0.2637E-06  0.5813E-06  0.9870E-06  0.1542E-05  0.2030E-05
    7640.00    0.2848E-07  0.9466E-07  0.2581E-06  0.5664E-06  0.9610E-06  0.1503E-05  0.1984E-05
    7660.00    0.2907E-07  0.9378E-07  0.2529E-06  0.5523E-06  0.9368E-06  0.1466E-05  0.1938E-05
    7680.00    0.2964E-07  0.9300E-07  0.2477E-06  0.5384E-06  0.9126E-06  0.1431E-05  0.1893E-05
    7700.00    0.3017E-07  0.9231E-07  0.2428E-06  0.5252E-06  0.8896E-06  0.1396E-05  0.1849E-05
    7720.00    0.3069E-07  0.9173E-07  0.2383E-06  0.5123E-06  0.8671E-06  0.1361E-05  0.1806E-05
    7740.00    0.3119E-07  0.9125E-07  0.2337E-06  0.4999E-06  0.8452E-06  0.1329E-05  0.1765E-05
    7760.00    0.3167E-07  0.9086E-07  0.2295E-06  0.4878E-06  0.8241E-06  0.1297E-05  0.1725E-05
    7780.00    0.3216E-07  0.9057E-07  0.2254E-06  0.4761E-06  0.8037E-06  0.1265E-05  0.1686E-05
    7800.00    0.3271E-07  0.9036E-07  0.2215E-06  0.4649E-06  0.7837E-06  0.1235E-05  0.1647E-05
    7820.00    0.3334E-07  0.9024E-07  0.2177E-06  0.4539E-06  0.7645E-06  0.1206E-05  0.1610E-05
    7840.00    0.3408E-07  0.9021E-07  0.2140E-06  0.4434E-06  0.7459E-06  0.1177E-05  0.1574E-05
    7860.00    0.3498E-07  0.9023E-07  0.2106E-06  0.4332E-06  0.7278E-06  0.1149E-05  0.1539E-05
    7880.00    0.3601E-07  0.9034E-07  0.2073E-06  0.4233E-06  0.7102E-06  0.1122E-05  0.1505E-05
    7900.00    0.3718E-07  0.9048E-07  0.2040E-06  0.4137E-06  0.6932E-06  0.1096E-05  0.1472E-05
    7920.00    0.3848E-07  0.9068E-07  0.2009E-06  0.4044E-06  0.6768E-06  0.1071E-05  0.1439E-05
    7940.00    0.3991E-07  0.9089E-07  0.1979E-06  0.3955E-06  0.6607E-06  0.1046E-05  0.1408E-05
    7960.00    0.4141E-07  0.9111E-07  0.1948E-06  0.3867E-06  0.6453E-06  0.1021E-05  0.1376E-05
    7980.00    0.4295E-07  0.9131E-07  0.1920E-06  0.3783E-06  0.6303E-06  0.9982E-06  0.1347E-05
    8000.00    0.4450E-07  0.9149E-07  0.1894E-06  0.3710E-06  0.6184E-06  0.9811E-06  0.1328E-05
    8020.00    0.4522E-07  0.9161E-07  0.1866E-06  0.3631E-06  0.6044E-06  0.9589E-06  0.1300E-05
    8040.00    0.4671E-07  0.9169E-07  0.1839E-06  0.3554E-06  0.5908E-06  0.9374E-06  0.1272E-05
    8060.00    0.4808E-07  0.9168E-07  0.1812E-06  0.3481E-06  0.5777E-06  0.9168E-06  0.1246E-05
    8080.00    0.4934E-07  0.9163E-07  0.1786E-06  0.3409E-06  0.5650E-06  0.8970E-06  0.1220E-05
    8100.00    0.5055E-07  0.9147E-07  0.1761E-06  0.3339E-06  0.5527E-06  0.8772E-06  0.1195E-05
    8120.00    0.5165E-07  0.9125E-07  0.1736E-06  0.3271E-06  0.5408E-06  0.8590E-06  0.1170E-05
    8140.00    0.5267E-07  0.9096E-07  0.1712E-06  0.3207E-06  0.5294E-06  0.8404E-06  0.1147E-05
    8160.00    0.5363E-07  0.9058E-07  0.1687E-06  0.3145E-06  0.5182E-06  0.8227E-06  0.1124E-05
    8180.00    0.5451E-07  0.9014E-07  0.1663E-06  0.3084E-06  0.5075E-06  0.8056E-06  0.1102E-05
    8200.00    0.5528E-07  0.8961E-07  0.1640E-06  0.3024E-06  0.4971E-06  0.7890E-06  0.1080E-05
    8220.00    0.5593E-07  0.8903E-07  0.1618E-06  0.2968E-06  0.4872E-06  0.7729E-06  0.1059E-05
    8240.00    0.5640E-07  0.8839E-07  0.1596E-06  0.2913E-06  0.4776E-06  0.7573E-06  0.1038E-05
    8260.00    0.5665E-07  0.8770E-07  0.1574E-06  0.2862E-06  0.4684E-06  0.7423E-06  0.1019E-05
    8280.00    0.5666E-07  0.8696E-07  0.1555E-06  0.2811E-06  0.4594E-06  0.7278E-06  0.9992E-06
    8300.00    0.5645E-07  0.8620E-07  0.1535E-06  0.2764E-06  0.4508E-06  0.7136E-06  0.9805E-06
    8320.00    0.5601E-07  0.8543E-07  0.1516E-06  0.2718E-06  0.4425E-06  0.7000E-06  0.9625E-06
    8340.00    0.5538E-07  0.8466E-07  0.1497E-06  0.2673E-06  0.4346E-06  0.6868E-06  0.9453E-06
    8360.00    0.5461E-07  0.8390E-07  0.1481E-06  0.2631E-06  0.4269E-06  0.6741E-06  0.9281E-06
    8380.00    0.5377E-07  0.8317E-07  0.1463E-06  0.2590E-06  0.4195E-06  0.6617E-06  0.9117E-06
    8400.00    0.5295E-07  0.8249E-07  0.1449E-06  0.2550E-06  0.4124E-06  0.6498E-06  0.8953E-06
    8420.00    0.5223E-07  0.8187E-07  0.1434E-06  0.2515E-06  0.4056E-06  0.6382E-06  0.8796E-06
    8440.00    0.5167E-07  0.8131E-07  0.1420E-06  0.2479E-06  0.3990E-06  0.6270E-06  0.8647E-06
    8460.00    0.5130E-07  0.8083E-07  0.1407E-06  0.2446E-06  0.3927E-06  0.6163E-06  0.8498E-06
    8480.00    0.5112E-07  0.8042E-07  0.1396E-06  0.2414E-06  0.3867E-06  0.6060E-06  0.8357E-06
    8500.00    0.5114E-07  0.8007E-07  0.1383E-06  0.2384E-06  0.3809E-06  0.5958E-06  0.8220E-06
    8520.00    0.5136E-07  0.7981E-07  0.1374E-06  0.2355E-06  0.3753E-06  0.5861E-06  0.8087E-06
    8540.00    0.5172E-07  0.7960E-07  0.1364E-06  0.2327E-06  0.3700E-06  0.5766E-06  0.7956E-06
    8560.00    0.5218E-07  0.7945E-07  0.1354E-06  0.2301E-06  0.3647E-06  0.5674E-06  0.7829E-06
    8580.00    0.5267E-07  0.7934E-07  0.1346E-06  0.2276E-06  0.3598E-06  0.5587E-06  0.7706E-06
    8600.00    0.5310E-07  0.7928E-07  0.1338E-06  0.2252E-06  0.3551E-06  0.5501E-06  0.7585E-06
    8620.00    0.5364E-07  0.7929E-07  0.1331E-06  0.2230E-06  0.3505E-06  0.5419E-06  0.7470E-06
    8640.00    0.5419E-07  0.7936E-07  0.1325E-06  0.2209E-06  0.3461E-06  0.5338E-06  0.7356E-06
    8660.00    0.5464E-07  0.7945E-07  0.1319E-06  0.2188E-06  0.3418E-06  0.5260E-06  0.7245E-06
    8680.00    0.5505E-07  0.7958E-07  0.1314E-06  0.2168E-06  0.3377E-06  0.5183E-06  0.7137E-06
    8700.00    0.5547E-07  0.7973E-07  0.1309E-06  0.2151E-06  0.3339E-06  0.5110E-06  0.7032E-06
    8720.00    0.5591E-07  0.7991E-07  0.1305E-06  0.2133E-06  0.3299E-06  0.5038E-06  0.6929E-06
    8740.00    0.5639E-07  0.8012E-07  0.1300E-06  0.2116E-06  0.3261E-06  0.4968E-06  0.6830E-06
    8760.00    0.5691E-07  0.8036E-07  0.1296E-06  0.2099E-06  0.3225E-06  0.4901E-06  0.6732E-06
    8780.00    0.5746E-07  0.8062E-07  0.1293E-06  0.2084E-06  0.3190E-06  0.4835E-06  0.6635E-06
    8800.00    0.5810E-07  0.8092E-07  0.1289E-06  0.2068E-06  0.3156E-06  0.4768E-06  0.6542E-06
    8820.00    0.5875E-07  0.8123E-07  0.1287E-06  0.2053E-06  0.3122E-06  0.4706E-06  0.6450E-06
    8840.00    0.5930E-07  0.8154E-07  0.1283E-06  0.2038E-06  0.3090E-06  0.4643E-06  0.6360E-06
    8860.00    0.5972E-07  0.8183E-07  0.1280E-06  0.2024E-06  0.3056E-06  0.4582E-06  0.6271E-06
    8880.00    0.6001E-07  0.8209E-07  0.1278E-06  0.2010E-06  0.3024E-06  0.4523E-06  0.6185E-06
    8900.00    0.6014E-07  0.8232E-07  0.1275E-06  0.1996E-06  0.2993E-06  0.4464E-06  0.6099E-06
    8920.00    0.6004E-07  0.8248E-07  0.1271E-06  0.1982E-06  0.2963E-06  0.4406E-06  0.6016E-06
    8940.00    0.5967E-07  0.8257E-07  0.1268E-06  0.1969E-06  0.2932E-06  0.4350E-06  0.5933E-06
    8960.00    0.5920E-07  0.8266E-07  0.1265E-06  0.1955E-06  0.2903E-06  0.4294E-06  0.5852E-06
    8980.00    0.5866E-07  0.8275E-07  0.1261E-06  0.1941E-06  0.2873E-06  0.4239E-06  0.5773E-06
    9000.00    0.5789E-07  0.8277E-07  0.1257E-06  0.1928E-06  0.2844E-06  0.4185E-06  0.5694E-06
    9020.00    0.5696E-07  0.8164E-07  0.1251E-06  0.1913E-06  0.2815E-06  0.4131E-06  0.5615E-06
    9040.00    0.5591E-07  0.8158E-07  0.1246E-06  0.1900E-06  0.2786E-06  0.4079E-06  0.5538E-06
    9060.00    0.5480E-07  0.8144E-07  0.1242E-06  0.1887E-06  0.2757E-06  0.4027E-06  0.5460E-06
    9080.00    0.5364E-07  0.8126E-07  0.1236E-06  0.1873E-06  0.2728E-06  0.3974E-06  0.5385E-06
    9100.00    0.5243E-07  0.8104E-07  0.1230E-06  0.1859E-06  0.2701E-06  0.3924E-06  0.5308E-06
    9120.00    0.5124E-07  0.8079E-07  0.1225E-06  0.1844E-06  0.2671E-06  0.3872E-06  0.5234E-06
    9140.00    0.5005E-07  0.8047E-07  0.1220E-06  0.1830E-06  0.2644E-06  0.3822E-06  0.5161E-06
    9160.00    0.4883E-07  0.8007E-07  0.1213E-06  0.1815E-06  0.2615E-06  0.3773E-06  0.5089E-06
    9180.00    0.4759E-07  0.7957E-07  0.1206E-06  0.1800E-06  0.2588E-06  0.3723E-06  0.5017E-06
    9200.00    0.4627E-07  0.7896E-07  0.1198E-06  0.1785E-06  0.2559E-06  0.3674E-06  0.4946E-06
    9220.00    0.4486E-07  0.7830E-07  0.1192E-06  0.1769E-06  0.2530E-06  0.3626E-06  0.4876E-06
    9240.00    0.4343E-07  0.7757E-07  0.1183E-06  0.1753E-06  0.2503E-06  0.3579E-06  0.4807E-06
    9260.00    0.4189E-07  0.7677E-07  0.1174E-06  0.1738E-06  0.2475E-06  0.3530E-06  0.4737E-06
    9280.00    0.4026E-07  0.7584E-07  0.1164E-06  0.1721E-06  0.2445E-06  0.3482E-06  0.4669E-06
    9300.00    0.3855E-07  0.7478E-07  0.1154E-06  0.1704E-06  0.2416E-06  0.3434E-06  0.4602E-06
    9320.00    0.3679E-07  0.7361E-07  0.1142E-06  0.1685E-06  0.2387E-06  0.3387E-06  0.4534E-06
    9340.00    0.3503E-07  0.7234E-07  0.1128E-06  0.1666E-06  0.2358E-06  0.3339E-06  0.4467E-06
    9360.00    0.3327E-07  0.7099E-07  0.1115E-06  0.1646E-06  0.2327E-06  0.3291E-06  0.4400E-06
    9380.00    0.3152E-07  0.6952E-07  0.1102E-06  0.1625E-06  0.2295E-06  0.3244E-06  0.4334E-06
    9400.00    0.2981E-07  0.6797E-07  0.1086E-06  0.1605E-06  0.2265E-06  0.3196E-06  0.4269E-06
    9420.00    0.2817E-07  0.6636E-07  0.1069E-06  0.1583E-06  0.2233E-06  0.3148E-06  0.4203E-06
    9440.00    0.2661E-07  0.6470E-07  0.1052E-06  0.1560E-06  0.2201E-06  0.3100E-06  0.4138E-06
    9460.00    0.2510E-07  0.6293E-07  0.1033E-06  0.1536E-06  0.2168E-06  0.3052E-06  0.4073E-06
    9480.00    0.2366E-07  0.6110E-07  0.1013E-06  0.1511E-06  0.2134E-06  0.3004E-06  0.4009E-06
    9500.00    0.2228E-07  0.5924E-07  0.9925E-07  0.1486E-06  0.2100E-06  0.2956E-06  0.3946E-06
    9520.00    0.2096E-07  0.5733E-07  0.9706E-07  0.1459E-06  0.2066E-06  0.2908E-06  0.3882E-06
    9540.00    0.1971E-07  0.5540E-07  0.9485E-07  0.1432E-06  0.2032E-06  0.2860E-06  0.3819E-06
    9560.00    0.1851E-07  0.5344E-07  0.9258E-07  0.1405E-06  0.1996E-06  0.2811E-06  0.3756E-06
    9580.00    0.1736E-07  0.5147E-07  0.9025E-07  0.1378E-06  0.1961E-06  0.2763E-06  0.3693E-06
    9600.00    0.1628E-07  0.4951E-07  0.8788E-07  0.1349E-06  0.1924E-06  0.2715E-06  0.3630E-06
    9620.00    0.1524E-07  0.4756E-07  0.8549E-07  0.1320E-06  0.1889E-06  0.2667E-06  0.3569E-06
    9640.00    0.1426E-07  0.4567E-07  0.8310E-07  0.1291E-06  0.1853E-06  0.2619E-06  0.3508E-06
    9660.00    0.1333E-07  0.4379E-07  0.8069E-07  0.1262E-06  0.1817E-06  0.2571E-06  0.3446E-06
    9680.00    0.1246E-07  0.4197E-07  0.7830E-07  0.1234E-06  0.1780E-06  0.2523E-06  0.3386E-06
    9700.00    0.1162E-07  0.4020E-07  0.7594E-07  0.1204E-06  0.1744E-06  0.2476E-06  0.3327E-06
    9720.00    0.1084E-07  0.3849E-07  0.7361E-07  0.1175E-06  0.1708E-06  0.2428E-06  0.3266E-06
    9740.00    0.1011E-07  0.3684E-07  0.7130E-07  0.1146E-06  0.1672E-06  0.2383E-06  0.3208E-06
    9760.00    0.9425E-08  0.3525E-07  0.6903E-07  0.1119E-06  0.1636E-06  0.2336E-06  0.3149E-06
    9780.00    0.8788E-08  0.3372E-07  0.6681E-07  0.1090E-06  0.1601E-06  0.2291E-06  0.3093E-06
    9800.00    0.8193E-08  0.3226E-07  0.6463E-07  0.1062E-06  0.1567E-06  0.2246E-06  0.3037E-06
    9820.00    0.7639E-08  0.3084E-07  0.6249E-07  0.1034E-06  0.1532E-06  0.2200E-06  0.2980E-06
    9840.00    0.7120E-08  0.2949E-07  0.6041E-07  0.1007E-06  0.1498E-06  0.2157E-06  0.2926E-06
    9860.00    0.6637E-08  0.2820E-07  0.5837E-07  0.9809E-07  0.1465E-06  0.2114E-06  0.2871E-06
    9880.00    0.6184E-08  0.2695E-07  0.5640E-07  0.9549E-07  0.1432E-06  0.2071E-06  0.2817E-06
    9900.00    0.5760E-08  0.2576E-07  0.5447E-07  0.9295E-07  0.1401E-06  0.2029E-06  0.2765E-06
    9920.00    0.5364E-08  0.2462E-07  0.5260E-07  0.9046E-07  0.1368E-06  0.1988E-06  0.2714E-06
    9940.00    0.4993E-08  0.2353E-07  0.5077E-07  0.8803E-07  0.1338E-06  0.1948E-06  0.2662E-06
    9960.00    0.4646E-08  0.2248E-07  0.4902E-07  0.8566E-07  0.1307E-06  0.1908E-06  0.2613E-06
    9980.00    0.4324E-08  0.2149E-07  0.4730E-07  0.8334E-07  0.1277E-06  0.1868E-06  0.2564E-06
   10000.00    0.4024E-08  0.2053E-07  0.4565E-07  0.8109E-07  0.1249E-06  0.1831E-06  0.2516E-06
   10020.00    0.3745E-08  0.1963E-07  0.4406E-07  0.7890E-07  0.1220E-06  0.1793E-06  0.2468E-06
   10040.00    0.3485E-08  0.1877E-07  0.4251E-07  0.7677E-07  0.1192E-06  0.1756E-06  0.2422E-06
   10060.00    0.3245E-08  0.1794E-07  0.4102E-07  0.7470E-07  0.1165E-06  0.1720E-06  0.2376E-06
   10080.00    0.3022E-08  0.1715E-07  0.3959E-07  0.7268E-07  0.1138E-06  0.1685E-06  0.2331E-06
   10100.00    0.2814E-08  0.1638E-07  0.3822E-07  0.7074E-07  0.1112E-06  0.1650E-06  0.2288E-06
   10120.00    0.2622E-08  0.1566E-07  0.3689E-07  0.6884E-07  0.1087E-06  0.1616E-06  0.2245E-06
   10140.00    0.2444E-08  0.1498E-07  0.3561E-07  0.6702E-07  0.1061E-06  0.1583E-06  0.2203E-06
   10160.00    0.2279E-08  0.1431E-07  0.3438E-07  0.6524E-07  0.1037E-06  0.1551E-06  0.2162E-06
   10180.00    0.2127E-08  0.1369E-07  0.3321E-07  0.6352E-07  0.1014E-06  0.1519E-06  0.2122E-06
   10200.00    0.1986E-08  0.1310E-07  0.3208E-07  0.6185E-07  0.9904E-07  0.1490E-06  0.2082E-06
   10220.00    0.1856E-08  0.1252E-07  0.3100E-07  0.6024E-07  0.9680E-07  0.1458E-06  0.2044E-06
   10240.00    0.1737E-08  0.1199E-07  0.2996E-07  0.5868E-07  0.9466E-07  0.1430E-06  0.2007E-06
   10260.00    0.1628E-08  0.1147E-07  0.2896E-07  0.5717E-07  0.9254E-07  0.1400E-06  0.1970E-06
   10280.00    0.1528E-08  0.1099E-07  0.2800E-07  0.5570E-07  0.9048E-07  0.1373E-06  0.1933E-06
   10300.00    0.1437E-08  0.1053E-07  0.2708E-07  0.5428E-07  0.8847E-07  0.1345E-06  0.1898E-06
   10320.00    0.1353E-08  0.1009E-07  0.2619E-07  0.5291E-07  0.8650E-07  0.1319E-06  0.1864E-06
   10340.00    0.1277E-08  0.9680E-08  0.2535E-07  0.5157E-07  0.8459E-07  0.1292E-06  0.1830E-06
   10360.00    0.1207E-08  0.9291E-08  0.2453E-07  0.5027E-07  0.8273E-07  0.1266E-06  0.1797E-06
   10380.00    0.1145E-08  0.8921E-08  0.2375E-07  0.4902E-07  0.8092E-07  0.1241E-06  0.1764E-06
   10400.00    0.1088E-08  0.8572E-08  0.2299E-07  0.4780E-07  0.7915E-07  0.1216E-06  0.1733E-06
   10420.00    0.1037E-08  0.8242E-08  0.2228E-07  0.4661E-07  0.7744E-07  0.1193E-06  0.1702E-06
   10440.00    0.9917E-09  0.7932E-08  0.2157E-07  0.4547E-07  0.7577E-07  0.1170E-06  0.1672E-06
   10460.00    0.9520E-09  0.7640E-08  0.2092E-07  0.4436E-07  0.7415E-07  0.1146E-06  0.1642E-06
   10480.00    0.9175E-09  0.7365E-08  0.2029E-07  0.4328E-07  0.7255E-07  0.1125E-06  0.1613E-06
   10500.00    0.8882E-09  0.7107E-08  0.1968E-07  0.4223E-07  0.7101E-07  0.1103E-06  0.1585E-06
   10520.00    0.8637E-09  0.6864E-08  0.1910E-07  0.4123E-07  0.6951E-07  0.1082E-06  0.1557E-06
   10540.00    0.8436E-09  0.6637E-08  0.1854E-07  0.4025E-07  0.6804E-07  0.1061E-06  0.1530E-06
   10560.00    0.8273E-09  0.6423E-08  0.1802E-07  0.3929E-07  0.6663E-07  0.1041E-06  0.1504E-06
   10580.00    0.8144E-09  0.6222E-08  0.1751E-07  0.3838E-07  0.6525E-07  0.1021E-06  0.1478E-06
   10600.00    0.8041E-09  0.6032E-08  0.1702E-07  0.3748E-07  0.6388E-07  0.1002E-06  0.1453E-06
   10620.00    0.7952E-09  0.5854E-08  0.1656E-07  0.3662E-07  0.6258E-07  0.9834E-07  0.1428E-06
   10640.00    0.7864E-09  0.5683E-08  0.1611E-07  0.3579E-07  0.6131E-07  0.9654E-07  0.1404E-06
   10660.00    0.7770E-09  0.5523E-08  0.1568E-07  0.3499E-07  0.6007E-07  0.9473E-07  0.1381E-06
   10680.00    0.7663E-09  0.5371E-08  0.1528E-07  0.3421E-07  0.5886E-07  0.9302E-07  0.1358E-06
   10700.00    0.7554E-09  0.5227E-08  0.1488E-07  0.3345E-07  0.5770E-07  0.9134E-07  0.1335E-06
   10720.00    0.7451E-09  0.5089E-08  0.1451E-07  0.3271E-07  0.5656E-07  0.8969E-07  0.1314E-06
   10740.00    0.7362E-09  0.4960E-08  0.1416E-07  0.3201E-07  0.5545E-07  0.8807E-07  0.1292E-06
   10760.00    0.7294E-09  0.4839E-08  0.1381E-07  0.3133E-07  0.5438E-07  0.8650E-07  0.1272E-06
   10780.00    0.7250E-09  0.4726E-08  0.1349E-07  0.3066E-07  0.5333E-07  0.8500E-07  0.1251E-06
   10800.00    0.7234E-09  0.4621E-08  0.1319E-07  0.3002E-07  0.5232E-07  0.8351E-07  0.1231E-06
   10820.00    0.7250E-09  0.4526E-08  0.1289E-07  0.2942E-07  0.5133E-07  0.8207E-07  0.1212E-06
   10840.00    0.7300E-09  0.4439E-08  0.1261E-07  0.2881E-07  0.5039E-07  0.8065E-07  0.1193E-06
   10860.00    0.7384E-09  0.4362E-08  0.1235E-07  0.2824E-07  0.4946E-07  0.7928E-07  0.1174E-06
   10880.00    0.7498E-09  0.4292E-08  0.1210E-07  0.2769E-07  0.4855E-07  0.7795E-07  0.1156E-06
   10900.00    0.7638E-09  0.4229E-08  0.1187E-07  0.2716E-07  0.4768E-07  0.7665E-07  0.1138E-06
   10920.00    0.7797E-09  0.4175E-08  0.1165E-07  0.2664E-07  0.4685E-07  0.7538E-07  0.1121E-06
   10940.00    0.7972E-09  0.4127E-08  0.1144E-07  0.2616E-07  0.4602E-07  0.7415E-07  0.1105E-06
   10960.00    0.8165E-09  0.4086E-08  0.1125E-07  0.2568E-07  0.4521E-07  0.7296E-07  0.1088E-06
   10980.00    0.8386E-09  0.4050E-08  0.1106E-07  0.2522E-07  0.4444E-07  0.7179E-07  0.1072E-06
   11000.00    0.8636E-09  0.4023E-08  0.1089E-07  0.2480E-07  0.4370E-07  0.7065E-07  0.1056E-06
   11020.00    0.8922E-09  0.4000E-08  0.1073E-07  0.2437E-07  0.4298E-07  0.6954E-07  0.1041E-06
   11040.00    0.9241E-09  0.3983E-08  0.1058E-07  0.2397E-07  0.4227E-07  0.6848E-07  0.1027E-06
   11060.00    0.9588E-09  0.3970E-08  0.1044E-07  0.2358E-07  0.4160E-07  0.6744E-07  0.1012E-06
   11080.00    0.9958E-09  0.3962E-08  0.1031E-07  0.2319E-07  0.4095E-07  0.6641E-07  0.9971E-07
   11100.00    0.1034E-08  0.3958E-08  0.1018E-07  0.2284E-07  0.4031E-07  0.6542E-07  0.9841E-07
   11120.00    0.1074E-08  0.3958E-08  0.1006E-07  0.2250E-07  0.3968E-07  0.6446E-07  0.9702E-07
   11140.00    0.1113E-08  0.3962E-08  0.9962E-08  0.2216E-07  0.3908E-07  0.6352E-07  0.9571E-07
   11160.00    0.1149E-08  0.3969E-08  0.9858E-08  0.2184E-07  0.3850E-07  0.6262E-07  0.9441E-07
   11180.00    0.1181E-08  0.3979E-08  0.9765E-08  0.2153E-07  0.3795E-07  0.6173E-07  0.9319E-07
   11200.00    0.1205E-08  0.3988E-08  0.9678E-08  0.2125E-07  0.3740E-07  0.6087E-07  0.9188E-07
   11220.00    0.1224E-08  0.4001E-08  0.9599E-08  0.2095E-07  0.3688E-07  0.6002E-07  0.9076E-07
   11240.00    0.1241E-08  0.4017E-08  0.9523E-08  0.2069E-07  0.3637E-07  0.5921E-07  0.8957E-07
   11260.00    0.1259E-08  0.4034E-08  0.9456E-08  0.2042E-07  0.3586E-07  0.5842E-07  0.8843E-07
   11280.00    0.1279E-08  0.4055E-08  0.9393E-08  0.2017E-07  0.3540E-07  0.5766E-07  0.8732E-07
   11300.00    0.1304E-08  0.4079E-08  0.9335E-08  0.1993E-07  0.3492E-07  0.5690E-07  0.8625E-07
   11320.00    0.1333E-08  0.4106E-08  0.9282E-08  0.1970E-07  0.3447E-07  0.5618E-07  0.8519E-07
   11340.00    0.1368E-08  0.4135E-08  0.9234E-08  0.1947E-07  0.3405E-07  0.5547E-07  0.8415E-07
   11360.00    0.1411E-08  0.4168E-08  0.9190E-08  0.1926E-07  0.3363E-07  0.5477E-07  0.8315E-07
   11380.00    0.1461E-08  0.4205E-08  0.9150E-08  0.1906E-07  0.3321E-07  0.5410E-07  0.8216E-07
   11400.00    0.1518E-08  0.4245E-08  0.9114E-08  0.1885E-07  0.3282E-07  0.5345E-07  0.8120E-07
   11420.00    0.1583E-08  0.4289E-08  0.9084E-08  0.1866E-07  0.3244E-07  0.5282E-07  0.8027E-07
   11440.00    0.1656E-08  0.4336E-08  0.9055E-08  0.1848E-07  0.3207E-07  0.5220E-07  0.7936E-07
   11460.00    0.1735E-08  0.4386E-08  0.9030E-08  0.1831E-07  0.3171E-07  0.5160E-07  0.7846E-07
   11480.00    0.1822E-08  0.4438E-08  0.9007E-08  0.1813E-07  0.3136E-07  0.5103E-07  0.7760E-07
   11500.00    0.1916E-08  0.4491E-08  0.8988E-08  0.1797E-07  0.3102E-07  0.5045E-07  0.7675E-07
   11520.00    0.2017E-08  0.4545E-08  0.8968E-08  0.1780E-07  0.3069E-07  0.4991E-07  0.7591E-07
   11540.00    0.2124E-08  0.4597E-08  0.8950E-08  0.1766E-07  0.3039E-07  0.4937E-07  0.7511E-07
   11560.00    0.2235E-08  0.4649E-08  0.8931E-08  0.1750E-07  0.3008E-07  0.4885E-07  0.7432E-07
   11580.00    0.2349E-08  0.4699E-08  0.8912E-08  0.1736E-07  0.2978E-07  0.4834E-07  0.7355E-07
   11600.00    0.2466E-08  0.4747E-08  0.8894E-08  0.1722E-07  0.2949E-07  0.4784E-07  0.7279E-07
   11620.00    0.2582E-08  0.4793E-08  0.8875E-08  0.1708E-07  0.2920E-07  0.4737E-07  0.7206E-07
   11640.00    0.2694E-08  0.4834E-08  0.8855E-08  0.1695E-07  0.2894E-07  0.4690E-07  0.7133E-07
   11660.00    0.2798E-08  0.4872E-08  0.8834E-08  0.1681E-07  0.2866E-07  0.4645E-07  0.7063E-07
   11680.00    0.2889E-08  0.4904E-08  0.8810E-08  0.1669E-07  0.2841E-07  0.4600E-07  0.6996E-07
   11700.00    0.2961E-08  0.4927E-08  0.8784E-08  0.1656E-07  0.2815E-07  0.4558E-07  0.6928E-07
   11720.00    0.3012E-08  0.4944E-08  0.8755E-08  0.1642E-07  0.2792E-07  0.4515E-07  0.6862E-07
   11740.00    0.3042E-08  0.4955E-08  0.8725E-08  0.1631E-07  0.2768E-07  0.4474E-07  0.6798E-07
   11760.00    0.3049E-08  0.4957E-08  0.8691E-08  0.1618E-07  0.2745E-07  0.4434E-07  0.6736E-07
   11780.00    0.3029E-08  0.4953E-08  0.8656E-08  0.1606E-07  0.2722E-07  0.4396E-07  0.6674E-07
   11800.00    0.2989E-08  0.4944E-08  0.8620E-08  0.1595E-07  0.2700E-07  0.4359E-07  0.6615E-07
   11820.00    0.2934E-08  0.4932E-08  0.8582E-08  0.1584E-07  0.2681E-07  0.4322E-07  0.6558E-07
   11840.00    0.2875E-08  0.4918E-08  0.8546E-08  0.1573E-07  0.2660E-07  0.4287E-07  0.6500E-07
   11860.00    0.2817E-08  0.4904E-08  0.8508E-08  0.1563E-07  0.2640E-07  0.4251E-07  0.6444E-07
   11880.00    0.2766E-08  0.4893E-08  0.8473E-08  0.1552E-07  0.2621E-07  0.4220E-07  0.6390E-07
   11900.00    0.2726E-08  0.4882E-08  0.8438E-08  0.1543E-07  0.2602E-07  0.4186E-07  0.6337E-07
   11920.00    0.2698E-08  0.4874E-08  0.8408E-08  0.1534E-07  0.2585E-07  0.4154E-07  0.6285E-07
   11940.00    0.2687E-08  0.4870E-08  0.8378E-08  0.1525E-07  0.2569E-07  0.4123E-07  0.6234E-07
   11960.00    0.2693E-08  0.4869E-08  0.8350E-08  0.1517E-07  0.2553E-07  0.4095E-07  0.6185E-07
   11980.00    0.2716E-08  0.4871E-08  0.8325E-08  0.1508E-07  0.2537E-07  0.4065E-07  0.6136E-07
   12000.00    0.2758E-08  0.4876E-08  0.8303E-08  0.1501E-07  0.2522E-07  0.4037E-07  0.6089E-07
   12020.00    0.2812E-08  0.4802E-08  0.8245E-08  0.1492E-07  0.2503E-07  0.3995E-07  0.5999E-07
   12040.00    0.2884E-08  0.4817E-08  0.8229E-08  0.1486E-07  0.2490E-07  0.3969E-07  0.5954E-07
   12060.00    0.2968E-08  0.4834E-08  0.8216E-08  0.1480E-07  0.2477E-07  0.3944E-07  0.5910E-07
   12080.00    0.3061E-08  0.4852E-08  0.8204E-08  0.1475E-07  0.2465E-07  0.3920E-07  0.5867E-07
   12100.00    0.3161E-08  0.4871E-08  0.8195E-08  0.1469E-07  0.2454E-07  0.3896E-07  0.5825E-07
   12120.00    0.3265E-08  0.4891E-08  0.8188E-08  0.1464E-07  0.2442E-07  0.3874E-07  0.5783E-07
   12140.00    0.3368E-08  0.4911E-08  0.8185E-08  0.1460E-07  0.2432E-07  0.3852E-07  0.5744E-07
   12160.00    0.3466E-08  0.4931E-08  0.8183E-08  0.1456E-07  0.2423E-07  0.3831E-07  0.5705E-07
   12180.00    0.3558E-08  0.4951E-08  0.8183E-08  0.1453E-07  0.2413E-07  0.3809E-07  0.5666E-07
   12200.00    0.3639E-08  0.4971E-08  0.8185E-08  0.1450E-07  0.2404E-07  0.3790E-07  0.5628E-07
   12220.00    0.3707E-08  0.4990E-08  0.8191E-08  0.1447E-07  0.2396E-07  0.3770E-07  0.5591E-07
   12240.00    0.3759E-08  0.5007E-08  0.8197E-08  0.1444E-07  0.2387E-07  0.3752E-07  0.5555E-07
   12260.00    0.3790E-08  0.5024E-08  0.8205E-08  0.1442E-07  0.2380E-07  0.3732E-07  0.5519E-07
   12280.00    0.3807E-08  0.5041E-08  0.8215E-08  0.1439E-07  0.2373E-07  0.3715E-07  0.5483E-07
   12300.00    0.3810E-08  0.5059E-08  0.8226E-08  0.1439E-07  0.2365E-07  0.3696E-07  0.5448E-07
   12320.00    0.3797E-08  0.5078E-08  0.8240E-08  0.1437E-07  0.2359E-07  0.3679E-07  0.5414E-07
   12340.00    0.3777E-08  0.5097E-08  0.8256E-08  0.1436E-07  0.2352E-07  0.3662E-07  0.5380E-07
   12360.00    0.3756E-08  0.5119E-08  0.8273E-08  0.1435E-07  0.2346E-07  0.3645E-07  0.5346E-07
   12380.00    0.3741E-08  0.5142E-08  0.8291E-08  0.1435E-07  0.2341E-07  0.3629E-07  0.5312E-07
   12400.00    0.3732E-08  0.5169E-08  0.8313E-08  0.1434E-07  0.2335E-07  0.3611E-07  0.5279E-07
   12420.00    0.3730E-08  0.5199E-08  0.8336E-08  0.1434E-07  0.2330E-07  0.3595E-07  0.5246E-07
   12440.00    0.3741E-08  0.5232E-08  0.8363E-08  0.1433E-07  0.2323E-07  0.3579E-07  0.5213E-07
   12460.00    0.3763E-08  0.5269E-08  0.8389E-08  0.1434E-07  0.2318E-07  0.3562E-07  0.5180E-07
   12480.00    0.3792E-08  0.5308E-08  0.8416E-08  0.1434E-07  0.2312E-07  0.3547E-07  0.5146E-07
   12500.00    0.3826E-08  0.5348E-08  0.8443E-08  0.1434E-07  0.2307E-07  0.3530E-07  0.5115E-07
   12520.00    0.3863E-08  0.5388E-08  0.8471E-08  0.1433E-07  0.2302E-07  0.3513E-07  0.5081E-07
   12540.00    0.3894E-08  0.5428E-08  0.8497E-08  0.1434E-07  0.2295E-07  0.3496E-07  0.5048E-07
   12560.00    0.3918E-08  0.5468E-08  0.8523E-08  0.1433E-07  0.2290E-07  0.3480E-07  0.5015E-07
   12580.00    0.3949E-08  0.5511E-08  0.8550E-08  0.1432E-07  0.2283E-07  0.3463E-07  0.4981E-07
   12600.00    0.3974E-08  0.5554E-08  0.8576E-08  0.1431E-07  0.2277E-07  0.3445E-07  0.4947E-07
   12620.00    0.3988E-08  0.5592E-08  0.8598E-08  0.1431E-07  0.2269E-07  0.3426E-07  0.4912E-07
   12640.00    0.3992E-08  0.5627E-08  0.8617E-08  0.1429E-07  0.2261E-07  0.3407E-07  0.4877E-07
   12660.00    0.3987E-08  0.5656E-08  0.8634E-08  0.1427E-07  0.2252E-07  0.3388E-07  0.4841E-07
   12680.00    0.3976E-08  0.5681E-08  0.8646E-08  0.1424E-07  0.2244E-07  0.3368E-07  0.4805E-07
   12700.00    0.3957E-08  0.5700E-08  0.8654E-08  0.1421E-07  0.2235E-07  0.3347E-07  0.4769E-07
   12720.00    0.3924E-08  0.5711E-08  0.8657E-08  0.1417E-07  0.2224E-07  0.3326E-07  0.4731E-07
   12740.00    0.3877E-08  0.5713E-08  0.8654E-08  0.1413E-07  0.2213E-07  0.3303E-07  0.4693E-07
   12760.00    0.3819E-08  0.5707E-08  0.8643E-08  0.1409E-07  0.2201E-07  0.3280E-07  0.4654E-07
   12780.00    0.3757E-08  0.5696E-08  0.8628E-08  0.1403E-07  0.2189E-07  0.3256E-07  0.4614E-07
   12800.00    0.3681E-08  0.5675E-08  0.8605E-08  0.1397E-07  0.2175E-07  0.3231E-07  0.4573E-07
   12820.00    0.3591E-08  0.5643E-08  0.8573E-08  0.1389E-07  0.2161E-07  0.3205E-07  0.4533E-07
   12840.00    0.3492E-08  0.5601E-08  0.8533E-08  0.1381E-07  0.2145E-07  0.3179E-07  0.4490E-07
   12860.00    0.3389E-08  0.5553E-08  0.8487E-08  0.1373E-07  0.2129E-07  0.3152E-07  0.4447E-07
   12880.00    0.3286E-08  0.5501E-08  0.8436E-08  0.1364E-07  0.2113E-07  0.3124E-07  0.4404E-07
   12900.00    0.3184E-08  0.5441E-08  0.8379E-08  0.1354E-07  0.2096E-07  0.3094E-07  0.4359E-07
   12920.00    0.3085E-08  0.5375E-08  0.8315E-08  0.1343E-07  0.2078E-07  0.3065E-07  0.4315E-07
   12940.00    0.2991E-08  0.5301E-08  0.8243E-08  0.1332E-07  0.2059E-07  0.3034E-07  0.4269E-07
   12960.00    0.2905E-08  0.5224E-08  0.8168E-08  0.1320E-07  0.2040E-07  0.3003E-07  0.4224E-07
   12980.00    0.2824E-08  0.5144E-08  0.8087E-08  0.1309E-07  0.2020E-07  0.2973E-07  0.4177E-07
   13000.00    0.2749E-08  0.5062E-08  0.8003E-08  0.1296E-07  0.1999E-07  0.2941E-07  0.4130E-07
   13020.00    0.2678E-08  0.4980E-08  0.7916E-08  0.1282E-07  0.1977E-07  0.2908E-07  0.4083E-07
   13040.00    0.2611E-08  0.4897E-08  0.7828E-08  0.1268E-07  0.1957E-07  0.2875E-07  0.4036E-07
   13060.00    0.2547E-08  0.4815E-08  0.7736E-08  0.1254E-07  0.1934E-07  0.2841E-07  0.3989E-07
   13080.00    0.2483E-08  0.4734E-08  0.7645E-08  0.1241E-07  0.1913E-07  0.2808E-07  0.3941E-07
   13100.00    0.2420E-08  0.4653E-08  0.7551E-08  0.1226E-07  0.1890E-07  0.2775E-07  0.3892E-07
   13120.00    0.2358E-08  0.4573E-08  0.7456E-08  0.1211E-07  0.1867E-07  0.2741E-07  0.3844E-07
   13140.00    0.2293E-08  0.4494E-08  0.7358E-08  0.1196E-07  0.1845E-07  0.2707E-07  0.3795E-07
   13160.00    0.2226E-08  0.4416E-08  0.7262E-08  0.1182E-07  0.1822E-07  0.2673E-07  0.3747E-07
   13180.00    0.2158E-08  0.4338E-08  0.7162E-08  0.1167E-07  0.1799E-07  0.2639E-07  0.3699E-07
   13200.00    0.2087E-08  0.4261E-08  0.7062E-08  0.1151E-07  0.1775E-07  0.2605E-07  0.3651E-07
   13220.00    0.2016E-08  0.4183E-08  0.6961E-08  0.1135E-07  0.1752E-07  0.2571E-07  0.3603E-07
   13240.00    0.1945E-08  0.4107E-08  0.6859E-08  0.1120E-07  0.1729E-07  0.2536E-07  0.3556E-07
   13260.00    0.1873E-08  0.4030E-08  0.6756E-08  0.1105E-07  0.1706E-07  0.2501E-07  0.3508E-07
   13280.00    0.1802E-08  0.3954E-08  0.6653E-08  0.1089E-07  0.1682E-07  0.2468E-07  0.3460E-07
   13300.00    0.1731E-08  0.3877E-08  0.6548E-08  0.1074E-07  0.1658E-07  0.2434E-07  0.3413E-07
   13320.00    0.1661E-08  0.3800E-08  0.6442E-08  0.1058E-07  0.1635E-07  0.2400E-07  0.3365E-07
   13340.00    0.1592E-08  0.3723E-08  0.6336E-08  0.1042E-07  0.1612E-07  0.2366E-07  0.3318E-07
   13360.00    0.1524E-08  0.3646E-08  0.6229E-08  0.1027E-07  0.1588E-07  0.2332E-07  0.3272E-07
   13380.00    0.1457E-08  0.3568E-08  0.6121E-08  0.1011E-07  0.1565E-07  0.2298E-07  0.3226E-07
   13400.00    0.1391E-08  0.3489E-08  0.6012E-08  0.9949E-08  0.1543E-07  0.2265E-07  0.3179E-07
   13420.00    0.1326E-08  0.3410E-08  0.5903E-08  0.9786E-08  0.1518E-07  0.2232E-07  0.3133E-07
   13440.00    0.1262E-08  0.3330E-08  0.5793E-08  0.9628E-08  0.1495E-07  0.2199E-07  0.3088E-07
   13460.00    0.1199E-08  0.3249E-08  0.5682E-08  0.9468E-08  0.1473E-07  0.2166E-07  0.3043E-07
   13480.00    0.1138E-08  0.3167E-08  0.5571E-08  0.9308E-08  0.1448E-07  0.2132E-07  0.2998E-07
   13500.00    0.1079E-08  0.3085E-08  0.5460E-08  0.9149E-08  0.1426E-07  0.2100E-07  0.2953E-07
   13520.00    0.1022E-08  0.3003E-08  0.5348E-08  0.8990E-08  0.1403E-07  0.2067E-07  0.2908E-07
   13540.00    0.9663E-09  0.2920E-08  0.5236E-08  0.8830E-08  0.1379E-07  0.2035E-07  0.2864E-07
   13560.00    0.9127E-09  0.2838E-08  0.5124E-08  0.8670E-08  0.1357E-07  0.2002E-07  0.2822E-07
   13580.00    0.8611E-09  0.2755E-08  0.5012E-08  0.8511E-08  0.1334E-07  0.1970E-07  0.2777E-07
   13600.00    0.8116E-09  0.2672E-08  0.4900E-08  0.8353E-08  0.1311E-07  0.1939E-07  0.2735E-07
   13620.00    0.7642E-09  0.2590E-08  0.4788E-08  0.8193E-08  0.1289E-07  0.1907E-07  0.2693E-07
   13640.00    0.7190E-09  0.2509E-08  0.4676E-08  0.8036E-08  0.1266E-07  0.1876E-07  0.2650E-07
   13660.00    0.6760E-09  0.2428E-08  0.4564E-08  0.7879E-08  0.1243E-07  0.1845E-07  0.2609E-07
   13680.00    0.6353E-09  0.2348E-08  0.4454E-08  0.7722E-08  0.1221E-07  0.1814E-07  0.2567E-07
   13700.00    0.5968E-09  0.2270E-08  0.4343E-08  0.7566E-08  0.1198E-07  0.1784E-07  0.2526E-07
   13720.00    0.5605E-09  0.2192E-08  0.4233E-08  0.7409E-08  0.1176E-07  0.1753E-07  0.2486E-07
   13740.00    0.5264E-09  0.2116E-08  0.4124E-08  0.7255E-08  0.1154E-07  0.1723E-07  0.2446E-07
   13760.00    0.4942E-09  0.2041E-08  0.4016E-08  0.7101E-08  0.1133E-07  0.1693E-07  0.2406E-07
   13780.00    0.4640E-09  0.1967E-08  0.3908E-08  0.6949E-08  0.1112E-07  0.1664E-07  0.2366E-07
   13800.00    0.4356E-09  0.1895E-08  0.3802E-08  0.6796E-08  0.1090E-07  0.1634E-07  0.2328E-07
   13820.00    0.4090E-09  0.1825E-08  0.3696E-08  0.6646E-08  0.1069E-07  0.1605E-07  0.2289E-07
   13840.00    0.3840E-09  0.1757E-08  0.3591E-08  0.6497E-08  0.1047E-07  0.1577E-07  0.2251E-07
   13860.00    0.3605E-09  0.1690E-08  0.3489E-08  0.6350E-08  0.1027E-07  0.1548E-07  0.2213E-07
   13880.00    0.3384E-09  0.1625E-08  0.3388E-08  0.6204E-08  0.1006E-07  0.1519E-07  0.2176E-07
   13900.00    0.3178E-09  0.1562E-08  0.3288E-08  0.6060E-08  0.9856E-08  0.1493E-07  0.2140E-07
   13920.00    0.2984E-09  0.1500E-08  0.3190E-08  0.5917E-08  0.9655E-08  0.1465E-07  0.2103E-07
   13940.00    0.2803E-09  0.1441E-08  0.3093E-08  0.5777E-08  0.9456E-08  0.1438E-07  0.2067E-07
   13960.00    0.2633E-09  0.1383E-08  0.2998E-08  0.5639E-08  0.9260E-08  0.1411E-07  0.2032E-07
   13980.00    0.2474E-09  0.1327E-08  0.2905E-08  0.5502E-08  0.9067E-08  0.1385E-07  0.1997E-07
   14000.00    0.2325E-09  0.1272E-08  0.2814E-08  0.5368E-08  0.8876E-08  0.1359E-07  0.1963E-07
   14020.00    0.2185E-09  0.1220E-08  0.2725E-08  0.5236E-08  0.8688E-08  0.1334E-07  0.1929E-07
   14040.00    0.2054E-09  0.1169E-08  0.2638E-08  0.5106E-08  0.8504E-08  0.1308E-07  0.1896E-07
   14060.00    0.1931E-09  0.1120E-08  0.2553E-08  0.4979E-08  0.8321E-08  0.1284E-07  0.1862E-07
   14080.00    0.1816E-09  0.1073E-08  0.2470E-08  0.4854E-08  0.8142E-08  0.1259E-07  0.1831E-07
   14100.00    0.1708E-09  0.1027E-08  0.2388E-08  0.4731E-08  0.7966E-08  0.1236E-07  0.1798E-07
   14120.00    0.1607E-09  0.9831E-09  0.2308E-08  0.4611E-08  0.7793E-08  0.1212E-07  0.1767E-07
   14140.00    0.1513E-09  0.9407E-09  0.2231E-08  0.4494E-08  0.7621E-08  0.1188E-07  0.1736E-07
   14160.00    0.1424E-09  0.8998E-09  0.2157E-08  0.4377E-08  0.7454E-08  0.1165E-07  0.1705E-07
   14180.00    0.1341E-09  0.8605E-09  0.2084E-08  0.4265E-08  0.7290E-08  0.1143E-07  0.1675E-07
   14200.00    0.1263E-09  0.8226E-09  0.2013E-08  0.4155E-08  0.7128E-08  0.1120E-07  0.1645E-07
   14220.00    0.1189E-09  0.7863E-09  0.1945E-08  0.4046E-08  0.6970E-08  0.1098E-07  0.1615E-07
   14240.00    0.1121E-09  0.7513E-09  0.1878E-08  0.3940E-08  0.6814E-08  0.1076E-07  0.1587E-07
   14260.00    0.1056E-09  0.7177E-09  0.1812E-08  0.3837E-08  0.6663E-08  0.1055E-07  0.1559E-07
   14280.00    0.9957E-10  0.6855E-09  0.1749E-08  0.3737E-08  0.6512E-08  0.1035E-07  0.1530E-07
   14300.00    0.9389E-10  0.6546E-09  0.1688E-08  0.3638E-08  0.6366E-08  0.1014E-07  0.1504E-07
   14320.00    0.8856E-10  0.6250E-09  0.1630E-08  0.3541E-08  0.6223E-08  0.9948E-08  0.1476E-07
   14340.00    0.8355E-10  0.5966E-09  0.1572E-08  0.3447E-08  0.6082E-08  0.9747E-08  0.1450E-07
   14360.00    0.7884E-10  0.5694E-09  0.1516E-08  0.3356E-08  0.5944E-08  0.9555E-08  0.1424E-07
   14380.00    0.7442E-10  0.5433E-09  0.1465E-08  0.3267E-08  0.5809E-08  0.9366E-08  0.1398E-07
   14400.00    0.7027E-10  0.5183E-09  0.1412E-08  0.3179E-08  0.5676E-08  0.9180E-08  0.1373E-07
   14420.00    0.6636E-10  0.4944E-09  0.1363E-08  0.3095E-08  0.5548E-08  0.8998E-08  0.1349E-07
   14440.00    0.6269E-10  0.4715E-09  0.1314E-08  0.3012E-08  0.5422E-08  0.8820E-08  0.1324E-07
   14460.00    0.5923E-10  0.4497E-09  0.1269E-08  0.2932E-08  0.5298E-08  0.8645E-08  0.1300E-07
   14480.00    0.5598E-10  0.4288E-09  0.1223E-08  0.2854E-08  0.5176E-08  0.8473E-08  0.1276E-07
   14500.00    0.5291E-10  0.4088E-09  0.1180E-08  0.2778E-08  0.5059E-08  0.8305E-08  0.1254E-07
   14520.00    0.5003E-10  0.3897E-09  0.1138E-08  0.2704E-08  0.4943E-08  0.8140E-08  0.1230E-07
   14540.00    0.4731E-10  0.3714E-09  0.1098E-08  0.2632E-08  0.4830E-08  0.7978E-08  0.1209E-07
   14560.00    0.4476E-10  0.3540E-09  0.1060E-08  0.2561E-08  0.4719E-08  0.7819E-08  0.1186E-07
   14580.00    0.4235E-10  0.3374E-09  0.1022E-08  0.2493E-08  0.4611E-08  0.7665E-08  0.1165E-07
   14600.00    0.4008E-10  0.3215E-09  0.9866E-09  0.2427E-08  0.4506E-08  0.7512E-08  0.1144E-07
   14620.00    0.3794E-10  0.3064E-09  0.9521E-09  0.2363E-08  0.4404E-08  0.7363E-08  0.1123E-07
   14640.00    0.3593E-10  0.2919E-09  0.9189E-09  0.2299E-08  0.4302E-08  0.7218E-08  0.1103E-07
   14660.00    0.3402E-10  0.2781E-09  0.8869E-09  0.2239E-08  0.4205E-08  0.7074E-08  0.1083E-07
   14680.00    0.3223E-10  0.2650E-09  0.8561E-09  0.2180E-08  0.4109E-08  0.6935E-08  0.1063E-07
   14700.00    0.3054E-10  0.2525E-09  0.8266E-09  0.2122E-08  0.4015E-08  0.6797E-08  0.1044E-07
   14720.00    0.2894E-10  0.2405E-09  0.7981E-09  0.2066E-08  0.3923E-08  0.6663E-08  0.1026E-07
   14740.00    0.2743E-10  0.2292E-09  0.7707E-09  0.2011E-08  0.3835E-08  0.6531E-08  0.1007E-07
   14760.00    0.2601E-10  0.2183E-09  0.7445E-09  0.1959E-08  0.3748E-08  0.6403E-08  0.9890E-08
   14780.00    0.2467E-10  0.2080E-09  0.7191E-09  0.1907E-08  0.3662E-08  0.6276E-08  0.9711E-08
   14800.00    0.2340E-10  0.1982E-09  0.6947E-09  0.1858E-08  0.3580E-08  0.6153E-08  0.9532E-08
   14820.00    0.2221E-10  0.1888E-09  0.6713E-09  0.1809E-08  0.3498E-08  0.6032E-08  0.9363E-08
   14840.00    0.2108E-10  0.1799E-09  0.6488E-09  0.1761E-08  0.3420E-08  0.5915E-08  0.9194E-08
   14860.00    0.2001E-10  0.1714E-09  0.6271E-09  0.1716E-08  0.3342E-08  0.5798E-08  0.9028E-08
   14880.00    0.1900E-10  0.1633E-09  0.6063E-09  0.1672E-08  0.3266E-08  0.5686E-08  0.8866E-08
   14900.00    0.1805E-10  0.1556E-09  0.5863E-09  0.1629E-08  0.3194E-08  0.5575E-08  0.8707E-08
   14920.00    0.1715E-10  0.1483E-09  0.5671E-09  0.1587E-08  0.3122E-08  0.5466E-08  0.8550E-08
   14940.00    0.1629E-10  0.1414E-09  0.5486E-09  0.1546E-08  0.3053E-08  0.5361E-08  0.8398E-08
   14960.00    0.1549E-10  0.1347E-09  0.5308E-09  0.1506E-08  0.2984E-08  0.5256E-08  0.8248E-08
   14980.00    0.1473E-10  0.1284E-09  0.5136E-09  0.1469E-08  0.2917E-08  0.5155E-08  0.8100E-08
   15000.00    0.1400E-10  0.1224E-09  0.4971E-09  0.1431E-08  0.2853E-08  0.5056E-08  0.7956E-08
   15020.00    0.1332E-10  0.1167E-09  0.4702E-09  0.1395E-08  0.2789E-08  0.4958E-08  0.7813E-08
   15040.00    0.1267E-10  0.1112E-09  0.4541E-09  0.1360E-08  0.2728E-08  0.4863E-08  0.7675E-08
   15060.00    0.1206E-10  0.1060E-09  0.4386E-09  0.1326E-08  0.2669E-08  0.4771E-08  0.7539E-08
   15080.00    0.1148E-10  0.1011E-09  0.4237E-09  0.1292E-08  0.2609E-08  0.4680E-08  0.7405E-08
   15100.00    0.1093E-10  0.9640E-10  0.4094E-09  0.1260E-08  0.2552E-08  0.4590E-08  0.7273E-08
   15120.00    0.1041E-10  0.9193E-10  0.3957E-09  0.1229E-08  0.2496E-08  0.4503E-08  0.7145E-08
   15140.00    0.9918E-11  0.8768E-10  0.3825E-09  0.1199E-08  0.2442E-08  0.4418E-08  0.7019E-08
   15160.00    0.9450E-11  0.8363E-10  0.3699E-09  0.1169E-08  0.2389E-08  0.4335E-08  0.6894E-08
   15180.00    0.9007E-11  0.7978E-10  0.3578E-09  0.1141E-08  0.2338E-08  0.4252E-08  0.6774E-08
   15200.00    0.8586E-11  0.7611E-10  0.3461E-09  0.1113E-08  0.2287E-08  0.4172E-08  0.6655E-08
   15220.00    0.8187E-11  0.7262E-10  0.3349E-09  0.1085E-08  0.2238E-08  0.4095E-08  0.6539E-08
   15240.00    0.7809E-11  0.6930E-10  0.3241E-09  0.1060E-08  0.2190E-08  0.4018E-08  0.6423E-08
   15260.00    0.7450E-11  0.6614E-10  0.3137E-09  0.1034E-08  0.2143E-08  0.3944E-08  0.6311E-08
   15280.00    0.7109E-11  0.6314E-10  0.3037E-09  0.1009E-08  0.2097E-08  0.3870E-08  0.6202E-08
   15300.00    0.6785E-11  0.6028E-10  0.2942E-09  0.9851E-09  0.2053E-08  0.3799E-08  0.6094E-08
   15320.00    0.6477E-11  0.5756E-10  0.2849E-09  0.9616E-09  0.2010E-08  0.3729E-08  0.5988E-08
   15340.00    0.6185E-11  0.5496E-10  0.2761E-09  0.9389E-09  0.1968E-08  0.3661E-08  0.5883E-08
   15360.00    0.5907E-11  0.5250E-10  0.2675E-09  0.9167E-09  0.1926E-08  0.3593E-08  0.5781E-08
   15380.00    0.5643E-11  0.5015E-10  0.2594E-09  0.8951E-09  0.1886E-08  0.3527E-08  0.5683E-08
   15400.00    0.5392E-11  0.4792E-10  0.2514E-09  0.8743E-09  0.1847E-08  0.3464E-08  0.5584E-08
   15420.00    0.5154E-11  0.4579E-10  0.2440E-09  0.8539E-09  0.1808E-08  0.3400E-08  0.5487E-08
   15440.00    0.4927E-11  0.4377E-10  0.2366E-09  0.8342E-09  0.1771E-08  0.3339E-08  0.5394E-08
   15460.00    0.4711E-11  0.4184E-10  0.2296E-09  0.8150E-09  0.1734E-08  0.3279E-08  0.5300E-08
   15480.00    0.4506E-11  0.4001E-10  0.2228E-09  0.7961E-09  0.1699E-08  0.3219E-08  0.5210E-08
   15500.00    0.4310E-11  0.3826E-10  0.2162E-09  0.7779E-09  0.1665E-08  0.3162E-08  0.5121E-08
   15520.00    0.4124E-11  0.3660E-10  0.2099E-09  0.7602E-09  0.1630E-08  0.3106E-08  0.5033E-08
   15540.00    0.3947E-11  0.3502E-10  0.2039E-09  0.7429E-09  0.1598E-08  0.3050E-08  0.4948E-08
   15560.00    0.3778E-11  0.3351E-10  0.1980E-09  0.7262E-09  0.1565E-08  0.2996E-08  0.4864E-08
   15580.00    0.3617E-11  0.3207E-10  0.1923E-09  0.7100E-09  0.1533E-08  0.2943E-08  0.4782E-08
   15600.00    0.3464E-11  0.3070E-10  0.1869E-09  0.6941E-09  0.1503E-08  0.2892E-08  0.4701E-08
   15620.00    0.3318E-11  0.2940E-10  0.1816E-09  0.6786E-09  0.1473E-08  0.2840E-08  0.4621E-08
   15640.00    0.3179E-11  0.2816E-10  0.1765E-09  0.6636E-09  0.1444E-08  0.2790E-08  0.4544E-08
   15660.00    0.3046E-11  0.2697E-10  0.1716E-09  0.6489E-09  0.1415E-08  0.2742E-08  0.4468E-08
   15680.00    0.2919E-11  0.2584E-10  0.1669E-09  0.6346E-09  0.1388E-08  0.2694E-08  0.4392E-08
   15700.00    0.2798E-11  0.2477E-10  0.1623E-09  0.6208E-09  0.1360E-08  0.2647E-08  0.4319E-08
   15720.00    0.2683E-11  0.2374E-10  0.1579E-09  0.6073E-09  0.1333E-08  0.2601E-08  0.4246E-08
   15740.00    0.2573E-11  0.2276E-10  0.1537E-09  0.5941E-09  0.1308E-08  0.2556E-08  0.4176E-08
   15760.00    0.2468E-11  0.2183E-10  0.1495E-09  0.5813E-09  0.1282E-08  0.2512E-08  0.4107E-08
   15780.00    0.2367E-11  0.2093E-10  0.1455E-09  0.5688E-09  0.1257E-08  0.2469E-08  0.4038E-08
   15800.00    0.2271E-11  0.2009E-10  0.1417E-09  0.5567E-09  0.1234E-08  0.2427E-08  0.3971E-08
   15820.00    0.2180E-11  0.1927E-10  0.1379E-09  0.5449E-09  0.1210E-08  0.2385E-08  0.3906E-08
   15840.00    0.2092E-11  0.1850E-10  0.1343E-09  0.5333E-09  0.1186E-08  0.2344E-08  0.3842E-08
   15860.00    0.2009E-11  0.1776E-10  0.1308E-09  0.5221E-09  0.1164E-08  0.2304E-08  0.3778E-08
   15880.00    0.1929E-11  0.1706E-10  0.1274E-09  0.5110E-09  0.1142E-08  0.2266E-08  0.3716E-08
   15900.00    0.1852E-11  0.1638E-10  0.1242E-09  0.5005E-09  0.1120E-08  0.2228E-08  0.3654E-08
   15920.00    0.1779E-11  0.1574E-10  0.1210E-09  0.4900E-09  0.1100E-08  0.2191E-08  0.3594E-08
   15940.00    0.1709E-11  0.1513E-10  0.1179E-09  0.4798E-09  0.1079E-08  0.2154E-08  0.3537E-08
   15960.00    0.1642E-11  0.1454E-10  0.1150E-09  0.4699E-09  0.1059E-08  0.2119E-08  0.3479E-08
   15980.00    0.1578E-11  0.1398E-10  0.1121E-09  0.4602E-09  0.1039E-08  0.2082E-08  0.3422E-08
   16000.00    0.1517E-11  0.1345E-10  0.1093E-09  0.4509E-09  0.1020E-08  0.2048E-08  0.3367E-08
   16020.00    0.1458E-11  0.1294E-10  0.1066E-09  0.4412E-09  0.9990E-09  0.2009E-08  0.3303E-08
   16040.00    0.1402E-11  0.1245E-10  0.1041E-09  0.4320E-09  0.9796E-09  0.1973E-08  0.3243E-08
   16060.00    0.1348E-11  0.1198E-10  0.1015E-09  0.4230E-09  0.9605E-09  0.1937E-08  0.3186E-08
   16080.00    0.1296E-11  0.1154E-10  0.9897E-10  0.4143E-09  0.9415E-09  0.1901E-08  0.3130E-08
   16100.00    0.1247E-11  0.1111E-10  0.9658E-10  0.4058E-09  0.9231E-09  0.1868E-08  0.3073E-08
   16120.00    0.1199E-11  0.1070E-10  0.9426E-10  0.3975E-09  0.9052E-09  0.1833E-08  0.3019E-08
   16140.00    0.1154E-11  0.1031E-10  0.9200E-10  0.3894E-09  0.8876E-09  0.1801E-08  0.2965E-08
   16160.00    0.1110E-11  0.9938E-11  0.8982E-10  0.3815E-09  0.8704E-09  0.1769E-08  0.2913E-08
   16180.00    0.1069E-11  0.9581E-11  0.8771E-10  0.3737E-09  0.8535E-09  0.1736E-08  0.2862E-08
   16200.00    0.1029E-11  0.9240E-11  0.8564E-10  0.3661E-09  0.8370E-09  0.1705E-08  0.2812E-08
   16220.00    0.9901E-12  0.8913E-11  0.8365E-10  0.3588E-09  0.8209E-09  0.1675E-08  0.2762E-08
   16240.00    0.9532E-12  0.8601E-11  0.8181E-10  0.3516E-09  0.8051E-09  0.1646E-08  0.2714E-08
   16260.00    0.9178E-12  0.8301E-11  0.8003E-10  0.3445E-09  0.7897E-09  0.1617E-08  0.2665E-08
   16280.00    0.8838E-12  0.8015E-11  0.7829E-10  0.3376E-09  0.7747E-09  0.1587E-08  0.2618E-08
   16300.00    0.8512E-12  0.7741E-11  0.7660E-10  0.3310E-09  0.7599E-09  0.1560E-08  0.2573E-08
   16320.00    0.8199E-12  0.7478E-11  0.7496E-10  0.3244E-09  0.7455E-09  0.1532E-08  0.2528E-08
   16340.00    0.7898E-12  0.7227E-11  0.7337E-10  0.3180E-09  0.7313E-09  0.1504E-08  0.2483E-08
   16360.00    0.7610E-12  0.6986E-11  0.7181E-10  0.3118E-09  0.7174E-09  0.1478E-08  0.2440E-08
   16380.00    0.7332E-12  0.6755E-11  0.7030E-10  0.3057E-09  0.7038E-09  0.1452E-08  0.2398E-08
   16400.00    0.7066E-12  0.6533E-11  0.6883E-10  0.2997E-09  0.6906E-09  0.1426E-08  0.2356E-08
   16420.00    0.6810E-12  0.6321E-11  0.6740E-10  0.2939E-09  0.6775E-09  0.1402E-08  0.2315E-08
   16440.00    0.6564E-12  0.6118E-11  0.6602E-10  0.2881E-09  0.6649E-09  0.1377E-08  0.2275E-08
   16460.00    0.6327E-12  0.5923E-11  0.6467E-10  0.2825E-09  0.6523E-09  0.1353E-08  0.2235E-08
   16480.00    0.6100E-12  0.5736E-11  0.6335E-10  0.2772E-09  0.6402E-09  0.1330E-08  0.2197E-08
   16500.00    0.5881E-12  0.5557E-11  0.6206E-10  0.2719E-09  0.6282E-09  0.1307E-08  0.2159E-08
   16520.00    0.5671E-12  0.5385E-11  0.6081E-10  0.2667E-09  0.6165E-09  0.1284E-08  0.2121E-08
   16540.00    0.5468E-12  0.5220E-11  0.5960E-10  0.2615E-09  0.6051E-09  0.1262E-08  0.2085E-08
   16560.00    0.5274E-12  0.5062E-11  0.5841E-10  0.2565E-09  0.5939E-09  0.1240E-08  0.2050E-08
   16580.00    0.5087E-12  0.4910E-11  0.5726E-10  0.2518E-09  0.5829E-09  0.1219E-08  0.2014E-08
   16600.00    0.4907E-12  0.4764E-11  0.5613E-10  0.2470E-09  0.5721E-09  0.1198E-08  0.1979E-08
   16620.00    0.4733E-12  0.4624E-11  0.5503E-10  0.2424E-09  0.5616E-09  0.1178E-08  0.1945E-08
   16640.00    0.4567E-12  0.4490E-11  0.5397E-10  0.2378E-09  0.5513E-09  0.1157E-08  0.1911E-08
   16660.00    0.4406E-12  0.4361E-11  0.5293E-10  0.2334E-09  0.5412E-09  0.1138E-08  0.1880E-08
   16680.00    0.4252E-12  0.4237E-11  0.5191E-10  0.2290E-09  0.5313E-09  0.1118E-08  0.1847E-08
   16700.00    0.4103E-12  0.4117E-11  0.5092E-10  0.2247E-09  0.5215E-09  0.1100E-08  0.1815E-08
   16720.00    0.3960E-12  0.4003E-11  0.4996E-10  0.2207E-09  0.5120E-09  0.1080E-08  0.1784E-08
   16740.00    0.3822E-12  0.3893E-11  0.4902E-10  0.2165E-09  0.5027E-09  0.1062E-08  0.1754E-08
   16760.00    0.3689E-12  0.3787E-11  0.4810E-10  0.2126E-09  0.4936E-09  0.1044E-08  0.1723E-08
   16780.00    0.3561E-12  0.3685E-11  0.4721E-10  0.2087E-09  0.4847E-09  0.1026E-08  0.1694E-08
   16800.00    0.3438E-12  0.3588E-11  0.4635E-10  0.2048E-09  0.4759E-09  0.1010E-08  0.1666E-08
   16820.00    0.3319E-12  0.3494E-11  0.4550E-10  0.2012E-09  0.4674E-09  0.9921E-09  0.1638E-08
   16840.00    0.3204E-12  0.3403E-11  0.4467E-10  0.1975E-09  0.4589E-09  0.9759E-09  0.1610E-08
   16860.00    0.3094E-12  0.3316E-11  0.4386E-10  0.1939E-09  0.4506E-09  0.9596E-09  0.1583E-08
   16880.00    0.2988E-12  0.3232E-11  0.4307E-10  0.1906E-09  0.4425E-09  0.9435E-09  0.1556E-08
   16900.00    0.2886E-12  0.3151E-11  0.4230E-10  0.1871E-09  0.4346E-09  0.9278E-09  0.1529E-08
   16920.00    0.2787E-12  0.3074E-11  0.4155E-10  0.1838E-09  0.4269E-09  0.9125E-09  0.1503E-08
   16940.00    0.2692E-12  0.2999E-11  0.4082E-10  0.1805E-09  0.4193E-09  0.8974E-09  0.1478E-08
   16960.00    0.2600E-12  0.2927E-11  0.4010E-10  0.1773E-09  0.4118E-09  0.8825E-09  0.1452E-08
   16980.00    0.2512E-12  0.2857E-11  0.3940E-10  0.1742E-09  0.4045E-09  0.8679E-09  0.1428E-08
   17000.00    0.2426E-12  0.2791E-11  0.3872E-10  0.1710E-09  0.3973E-09  0.8538E-09  0.1405E-08
   17020.00    0.2344E-12  0.2726E-11  0.3805E-10  0.1681E-09  0.3903E-09  0.8397E-09  0.1381E-08
   17040.00    0.2265E-12  0.2664E-11  0.3740E-10  0.1651E-09  0.3833E-09  0.8260E-09  0.1358E-08
   17060.00    0.2188E-12  0.2604E-11  0.3676E-10  0.1623E-09  0.3766E-09  0.8125E-09  0.1335E-08
   17080.00    0.2114E-12  0.2546E-11  0.3614E-10  0.1595E-09  0.3700E-09  0.7993E-09  0.1313E-08
   17100.00    0.2043E-12  0.2490E-11  0.3553E-10  0.1567E-09  0.3634E-09  0.7863E-09  0.1291E-08
   17120.00    0.1975E-12  0.2437E-11  0.3493E-10  0.1540E-09  0.3571E-09  0.7735E-09  0.1269E-08
   17140.00    0.1908E-12  0.2385E-11  0.3435E-10  0.1514E-09  0.3509E-09  0.7609E-09  0.1248E-08
   17160.00    0.1844E-12  0.2335E-11  0.3379E-10  0.1488E-09  0.3448E-09  0.7487E-09  0.1227E-08
   17180.00    0.1783E-12  0.2286E-11  0.3323E-10  0.1463E-09  0.3388E-09  0.7366E-09  0.1207E-08
   17200.00    0.1723E-12  0.2240E-11  0.3269E-10  0.1438E-09  0.3328E-09  0.7249E-09  0.1186E-08
   17220.00    0.1666E-12  0.2194E-11  0.3216E-10  0.1414E-09  0.3272E-09  0.7132E-09  0.1167E-08
   17240.00    0.1610E-12  0.2151E-11  0.3164E-10  0.1390E-09  0.3215E-09  0.7018E-09  0.1148E-08
   17260.00    0.1557E-12  0.2109E-11  0.3113E-10  0.1366E-09  0.3160E-09  0.6906E-09  0.1129E-08
   17280.00    0.1505E-12  0.2068E-11  0.3063E-10  0.1343E-09  0.3105E-09  0.6796E-09  0.1110E-08
   17300.00    0.1455E-12  0.2029E-11  0.3014E-10  0.1321E-09  0.3051E-09  0.6689E-09  0.1092E-08
   17320.00    0.1407E-12  0.1990E-11  0.2967E-10  0.1299E-09  0.2998E-09  0.6582E-09  0.1074E-08
   17340.00    0.1360E-12  0.1954E-11  0.2920E-10  0.1277E-09  0.2948E-09  0.6478E-09  0.1056E-08
   17360.00    0.1316E-12  0.1918E-11  0.2874E-10  0.1258E-09  0.2897E-09  0.6376E-09  0.1039E-08
   17380.00    0.1272E-12  0.1884E-11  0.2830E-10  0.1236E-09  0.2848E-09  0.6276E-09  0.1021E-08
   17400.00    0.1230E-12  0.1850E-11  0.2786E-10  0.1216E-09  0.2799E-09  0.6178E-09  0.1005E-08
   17420.00    0.1190E-12  0.1818E-11  0.2743E-10  0.1196E-09  0.2752E-09  0.6081E-09  0.9887E-09
   17440.00    0.1151E-12  0.1787E-11  0.2701E-10  0.1177E-09  0.2705E-09  0.5986E-09  0.9723E-09
   17460.00    0.1113E-12  0.1756E-11  0.2660E-10  0.1158E-09  0.2659E-09  0.5892E-09  0.9564E-09
   17480.00    0.1077E-12  0.1727E-11  0.2620E-10  0.1139E-09  0.2614E-09  0.5801E-09  0.9409E-09
   17500.00    0.1042E-12  0.1698E-11  0.2580E-10  0.1121E-09  0.2570E-09  0.5712E-09  0.9255E-09
   17520.00    0.1008E-12  0.1671E-11  0.2542E-10  0.1103E-09  0.2528E-09  0.5623E-09  0.9105E-09
   17540.00    0.9747E-13  0.1644E-11  0.2504E-10  0.1085E-09  0.2485E-09  0.5536E-09  0.8957E-09
   17560.00    0.9430E-13  0.1618E-11  0.2467E-10  0.1068E-09  0.2443E-09  0.5451E-09  0.8813E-09
   17580.00    0.9123E-13  0.1593E-11  0.2431E-10  0.1051E-09  0.2403E-09  0.5367E-09  0.8669E-09
   17600.00    0.8827E-13  0.1568E-11  0.2395E-10  0.1034E-09  0.2362E-09  0.5284E-09  0.8530E-09
   17620.00    0.8541E-13  0.1545E-11  0.2360E-10  0.1018E-09  0.2323E-09  0.5204E-09  0.8392E-09
   17640.00    0.8265E-13  0.1522E-11  0.2327E-10  0.1002E-09  0.2284E-09  0.5125E-09  0.8257E-09
   17660.00    0.7997E-13  0.1499E-11  0.2293E-10  0.9864E-10  0.2246E-09  0.5047E-09  0.8125E-09
   17680.00    0.7739E-13  0.1478E-11  0.2260E-10  0.9710E-10  0.2209E-09  0.4969E-09  0.7994E-09
   17700.00    0.7490E-13  0.1456E-11  0.2228E-10  0.9559E-10  0.2173E-09  0.4895E-09  0.7866E-09
   17720.00    0.7249E-13  0.1436E-11  0.2196E-10  0.9411E-10  0.2137E-09  0.4820E-09  0.7740E-09
   17740.00    0.7016E-13  0.1416E-11  0.2165E-10  0.9265E-10  0.2101E-09  0.4748E-09  0.7616E-09
   17760.00    0.6790E-13  0.1397E-11  0.2135E-10  0.9123E-10  0.2066E-09  0.4676E-09  0.7494E-09
   17780.00    0.6573E-13  0.1378E-11  0.2105E-10  0.8983E-10  0.2033E-09  0.4605E-09  0.7375E-09
   17800.00    0.6362E-13  0.1359E-11  0.2075E-10  0.8845E-10  0.2000E-09  0.4537E-09  0.7258E-09
   17820.00    0.6159E-13  0.1342E-11  0.2047E-10  0.8711E-10  0.1967E-09  0.4469E-09  0.7143E-09
   17840.00    0.5962E-13  0.1324E-11  0.2018E-10  0.8579E-10  0.1936E-09  0.4403E-09  0.7030E-09
   17860.00    0.5772E-13  0.1307E-11  0.1991E-10  0.8448E-10  0.1904E-09  0.4337E-09  0.6919E-09
   17880.00    0.5588E-13  0.1291E-11  0.1963E-10  0.8321E-10  0.1873E-09  0.4272E-09  0.6810E-09
   17900.00    0.5411E-13  0.1275E-11  0.1937E-10  0.8195E-10  0.1842E-09  0.4210E-09  0.6701E-09
   17920.00    0.5239E-13  0.1259E-11  0.1910E-10  0.8072E-10  0.1812E-09  0.4147E-09  0.6597E-09
   17940.00    0.5073E-13  0.1244E-11  0.1885E-10  0.7951E-10  0.1784E-09  0.4085E-09  0.6493E-09
   17960.00    0.4912E-13  0.1229E-11  0.1859E-10  0.7833E-10  0.1754E-09  0.4025E-09  0.6391E-09
   17980.00    0.4757E-13  0.1214E-11  0.1834E-10  0.7716E-10  0.1726E-09  0.3967E-09  0.6290E-09
   18000.00    0.4606E-13  0.1200E-11  0.1810E-10  0.7601E-10  0.1698E-09  0.3908E-09  0.6192E-09
   18020.00    0.4461E-13  0.1187E-11  0.1786E-10  0.7489E-10  0.1672E-09  0.3851E-09  0.6095E-09
   18040.00    0.4321E-13  0.1173E-11  0.1762E-10  0.7378E-10  0.1644E-09  0.3794E-09  0.6000E-09
   18060.00    0.4185E-13  0.1160E-11  0.1739E-10  0.7269E-10  0.1618E-09  0.3740E-09  0.5906E-09
   18080.00    0.4054E-13  0.1147E-11  0.1717E-10  0.7162E-10  0.1592E-09  0.3686E-09  0.5815E-09
   18100.00    0.3926E-13  0.1135E-11  0.1694E-10  0.7057E-10  0.1566E-09  0.3632E-09  0.5725E-09
   18120.00    0.3804E-13  0.1122E-11  0.1672E-10  0.6955E-10  0.1542E-09  0.3579E-09  0.5636E-09
   18140.00    0.3685E-13  0.1110E-11  0.1651E-10  0.6854E-10  0.1518E-09  0.3528E-09  0.5549E-09
   18160.00    0.3570E-13  0.1099E-11  0.1630E-10  0.6754E-10  0.1493E-09  0.3478E-09  0.5463E-09
   18180.00    0.3459E-13  0.1087E-11  0.1609E-10  0.6656E-10  0.1470E-09  0.3428E-09  0.5379E-09
   18200.00    0.3351E-13  0.1076E-11  0.1588E-10  0.6561E-10  0.1446E-09  0.3377E-09  0.5296E-09
   18220.00    0.3247E-13  0.1065E-11  0.1568E-10  0.6466E-10  0.1424E-09  0.3329E-09  0.5215E-09
   18240.00    0.3146E-13  0.1055E-11  0.1548E-10  0.6373E-10  0.1402E-09  0.3282E-09  0.5135E-09
   18260.00    0.3049E-13  0.1044E-11  0.1529E-10  0.6282E-10  0.1380E-09  0.3235E-09  0.5056E-09
   18280.00    0.2955E-13  0.1034E-11  0.1510E-10  0.6193E-10  0.1358E-09  0.3189E-09  0.4978E-09
   18300.00    0.2863E-13  0.1024E-11  0.1491E-10  0.6105E-10  0.1336E-09  0.3144E-09  0.4902E-09
   18320.00    0.2775E-13  0.1014E-11  0.1473E-10  0.6019E-10  0.1316E-09  0.3099E-09  0.4828E-09
   18340.00    0.2690E-13  0.1004E-11  0.1454E-10  0.5933E-10  0.1295E-09  0.3056E-09  0.4754E-09
   18360.00    0.2607E-13  0.9951E-12  0.1436E-10  0.5849E-10  0.1275E-09  0.3013E-09  0.4682E-09
   18380.00    0.2528E-13  0.9859E-12  0.1419E-10  0.5767E-10  0.1255E-09  0.2970E-09  0.4611E-09
   18400.00    0.2450E-13  0.9768E-12  0.1402E-10  0.5685E-10  0.1236E-09  0.2928E-09  0.4541E-09
   18420.00    0.2375E-13  0.9680E-12  0.1384E-10  0.5607E-10  0.1216E-09  0.2887E-09  0.4472E-09
   18440.00    0.2303E-13  0.9593E-12  0.1368E-10  0.5528E-10  0.1198E-09  0.2846E-09  0.4405E-09
   18460.00    0.2233E-13  0.9508E-12  0.1351E-10  0.5452E-10  0.1179E-09  0.2808E-09  0.4338E-09
   18480.00    0.2165E-13  0.9424E-12  0.1335E-10  0.5375E-10  0.1161E-09  0.2768E-09  0.4273E-09
   18500.00    0.2100E-13  0.9342E-12  0.1319E-10  0.5301E-10  0.1143E-09  0.2729E-09  0.4209E-09
   18520.00    0.2036E-13  0.9262E-12  0.1303E-10  0.5228E-10  0.1126E-09  0.2692E-09  0.4146E-09
   18540.00    0.1975E-13  0.9183E-12  0.1288E-10  0.5156E-10  0.1109E-09  0.2655E-09  0.4084E-09
   18560.00    0.1915E-13  0.9105E-12  0.1273E-10  0.5086E-10  0.1091E-09  0.2618E-09  0.4022E-09
   18580.00    0.1858E-13  0.9029E-12  0.1258E-10  0.5016E-10  0.1075E-09  0.2582E-09  0.3962E-09
   18600.00    0.1802E-13  0.8954E-12  0.1243E-10  0.4947E-10  0.1058E-09  0.2546E-09  0.3904E-09
   18620.00    0.1748E-13  0.8881E-12  0.1228E-10  0.4880E-10  0.1042E-09  0.2512E-09  0.3845E-09
   18640.00    0.1696E-13  0.8809E-12  0.1214E-10  0.4814E-10  0.1026E-09  0.2477E-09  0.3788E-09
   18660.00    0.1645E-13  0.8738E-12  0.1200E-10  0.4749E-10  0.1010E-09  0.2443E-09  0.3732E-09
   18680.00    0.1596E-13  0.8668E-12  0.1186E-10  0.4684E-10  0.9952E-10  0.2409E-09  0.3676E-09
   18700.00    0.1549E-13  0.8600E-12  0.1172E-10  0.4620E-10  0.9801E-10  0.2377E-09  0.3623E-09
   18720.00    0.1503E-13  0.8532E-12  0.1159E-10  0.4559E-10  0.9654E-10  0.2344E-09  0.3568E-09
   18740.00    0.1459E-13  0.8466E-12  0.1146E-10  0.4498E-10  0.9508E-10  0.2313E-09  0.3517E-09
   18760.00    0.1416E-13  0.8401E-12  0.1133E-10  0.4438E-10  0.9363E-10  0.2282E-09  0.3464E-09
   18780.00    0.1374E-13  0.8337E-12  0.1120E-10  0.4379E-10  0.9223E-10  0.2250E-09  0.3414E-09
   18800.00    0.1334E-13  0.8273E-12  0.1107E-10  0.4320E-10  0.9084E-10  0.2220E-09  0.3363E-09
   18820.00    0.1295E-13  0.8211E-12  0.1095E-10  0.4263E-10  0.8948E-10  0.2191E-09  0.3314E-09
   18840.00    0.1257E-13  0.8150E-12  0.1082E-10  0.4206E-10  0.8815E-10  0.2161E-09  0.3266E-09
   18860.00    0.1221E-13  0.8090E-12  0.1070E-10  0.4151E-10  0.8683E-10  0.2133E-09  0.3218E-09
   18880.00    0.1185E-13  0.8030E-12  0.1058E-10  0.4096E-10  0.8553E-10  0.2103E-09  0.3171E-09
   18900.00    0.1151E-13  0.7972E-12  0.1047E-10  0.4042E-10  0.8425E-10  0.2075E-09  0.3124E-09
   18920.00    0.1118E-13  0.7914E-12  0.1035E-10  0.3990E-10  0.8300E-10  0.2048E-09  0.3080E-09
   18940.00    0.1085E-13  0.7858E-12  0.1024E-10  0.3938E-10  0.8177E-10  0.2020E-09  0.3034E-09
   18960.00    0.1054E-13  0.7802E-12  0.1013E-10  0.3886E-10  0.8055E-10  0.1994E-09  0.2990E-09
   18980.00    0.1024E-13  0.7747E-12  0.1001E-10  0.3836E-10  0.7937E-10  0.1968E-09  0.2947E-09
   19000.00    0.9950E-14  0.7692E-12  0.9904E-11  0.3786E-10  0.7819E-10  0.1941E-09  0.2905E-09
   19020.00    0.9667E-14  0.7639E-12  0.9797E-11  0.3737E-10  0.7704E-10  0.1917E-09  0.2862E-09
   19040.00    0.9393E-14  0.7586E-12  0.9691E-11  0.3689E-10  0.7590E-10  0.1890E-09  0.2822E-09
   19060.00    0.9127E-14  0.7534E-12  0.9586E-11  0.3642E-10  0.7478E-10  0.1865E-09  0.2782E-09
   19080.00    0.8870E-14  0.7483E-12  0.9483E-11  0.3595E-10  0.7368E-10  0.1842E-09  0.2741E-09
   19100.00    0.8621E-14  0.7432E-12  0.9381E-11  0.3548E-10  0.7260E-10  0.1818E-09  0.2703E-09
   19120.00    0.8379E-14  0.7382E-12  0.9281E-11  0.3503E-10  0.7154E-10  0.1794E-09  0.2664E-09
   19140.00    0.8146E-14  0.7333E-12  0.9182E-11  0.3459E-10  0.7050E-10  0.1771E-09  0.2626E-09
   19160.00    0.7919E-14  0.7284E-12  0.9085E-11  0.3415E-10  0.6947E-10  0.1747E-09  0.2588E-09
   19180.00    0.7700E-14  0.7236E-12  0.8989E-11  0.3372E-10  0.6845E-10  0.1724E-09  0.2551E-09
   19200.00    0.7487E-14  0.7188E-12  0.8894E-11  0.3329E-10  0.6746E-10  0.1703E-09  0.2515E-09
   19220.00    0.7281E-14  0.7142E-12  0.8801E-11  0.3288E-10  0.6648E-10  0.1680E-09  0.2479E-09
   19240.00    0.7081E-14  0.7095E-12  0.8708E-11  0.3246E-10  0.6551E-10  0.1658E-09  0.2444E-09
   19260.00    0.6888E-14  0.7050E-12  0.8618E-11  0.3205E-10  0.6456E-10  0.1638E-09  0.2410E-09
   19280.00    0.6700E-14  0.7005E-12  0.8528E-11  0.3165E-10  0.6363E-10  0.1616E-09  0.2376E-09
   19300.00    0.6519E-14  0.6960E-12  0.8440E-11  0.3126E-10  0.6272E-10  0.1595E-09  0.2342E-09
   19320.00    0.6343E-14  0.6916E-12  0.8352E-11  0.3087E-10  0.6180E-10  0.1575E-09  0.2310E-09
   19340.00    0.6172E-14  0.6872E-12  0.8266E-11  0.3049E-10  0.6092E-10  0.1555E-09  0.2276E-09
   19360.00    0.6007E-14  0.6829E-12  0.8181E-11  0.3011E-10  0.6004E-10  0.1535E-09  0.2244E-09
   19380.00    0.5846E-14  0.6787E-12  0.8098E-11  0.2973E-10  0.5918E-10  0.1515E-09  0.2213E-09
   19400.00    0.5691E-14  0.6745E-12  0.8015E-11  0.2936E-10  0.5833E-10  0.1497E-09  0.2183E-09
   19420.00    0.5540E-14  0.6703E-12  0.7934E-11  0.2901E-10  0.5749E-10  0.1477E-09  0.2152E-09
   19440.00    0.5394E-14  0.6662E-12  0.7853E-11  0.2864E-10  0.5667E-10  0.1458E-09  0.2122E-09
   19460.00    0.5253E-14  0.6622E-12  0.7774E-11  0.2830E-10  0.5586E-10  0.1440E-09  0.2092E-09
   19480.00    0.5116E-14  0.6582E-12  0.7695E-11  0.2795E-10  0.5507E-10  0.1422E-09  0.2064E-09
   19500.00    0.4983E-14  0.6542E-12  0.7618E-11  0.2762E-10  0.5428E-10  0.1404E-09  0.2035E-09
   19520.00    0.4854E-14  0.6503E-12  0.7542E-11  0.2729E-10  0.5351E-10  0.1387E-09  0.2006E-09
   19540.00    0.4729E-14  0.6464E-12  0.7467E-11  0.2695E-10  0.5275E-10  0.1368E-09  0.1979E-09
   19560.00    0.4607E-14  0.6425E-12  0.7392E-11  0.2663E-10  0.5201E-10  0.1351E-09  0.1951E-09
   19580.00    0.4490E-14  0.6387E-12  0.7319E-11  0.2630E-10  0.5127E-10  0.1335E-09  0.1925E-09
   19600.00    0.4376E-14  0.6350E-12  0.7247E-11  0.2599E-10  0.5055E-10  0.1318E-09  0.1898E-09
   19620.00    0.4265E-14  0.6312E-12  0.7175E-11  0.2567E-10  0.4983E-10  0.1302E-09  0.1872E-09
   19640.00    0.4158E-14  0.6276E-12  0.7105E-11  0.2537E-10  0.4914E-10  0.1285E-09  0.1846E-09
   19660.00    0.4054E-14  0.6239E-12  0.7035E-11  0.2506E-10  0.4844E-10  0.1270E-09  0.1821E-09
   19680.00    0.3953E-14  0.6203E-12  0.6966E-11  0.2476E-10  0.4775E-10  0.1254E-09  0.1796E-09
   19700.00    0.3855E-14  0.6167E-12  0.6899E-11  0.2447E-10  0.4710E-10  0.1239E-09  0.1773E-09
   19720.00    0.3760E-14  0.6132E-12  0.6832E-11  0.2418E-10  0.4643E-10  0.1223E-09  0.1748E-09
   19740.00    0.3668E-14  0.6097E-12  0.6765E-11  0.2389E-10  0.4578E-10  0.1208E-09  0.1724E-09
   19760.00    0.3579E-14  0.6062E-12  0.6700E-11  0.2361E-10  0.4515E-10  0.1193E-09  0.1700E-09
   19780.00    0.3492E-14  0.6028E-12  0.6636E-11  0.2333E-10  0.4452E-10  0.1179E-09  0.1678E-09
   19800.00    0.3408E-14  0.5994E-12  0.6573E-11  0.2305E-10  0.4390E-10  0.1165E-09  0.1654E-09
   19820.00    0.3326E-14  0.5960E-12  0.6510E-11  0.2278E-10  0.4329E-10  0.1150E-09  0.1633E-09
   19840.00    0.3247E-14  0.5927E-12  0.6448E-11  0.2252E-10  0.4269E-10  0.1136E-09  0.1610E-09
   19860.00    0.3170E-14  0.5894E-12  0.6387E-11  0.2225E-10  0.4209E-10  0.1122E-09  0.1589E-09
   19880.00    0.3095E-14  0.5861E-12  0.6326E-11  0.2200E-10  0.4151E-10  0.1108E-09  0.1567E-09
   19900.00    0.3023E-14  0.5828E-12  0.6266E-11  0.2173E-10  0.4094E-10  0.1096E-09  0.1547E-09
   19920.00    0.2953E-14  0.5796E-12  0.6207E-11  0.2148E-10  0.4038E-10  0.1082E-09  0.1525E-09
   19940.00    0.2884E-14  0.5764E-12  0.6149E-11  0.2124E-10  0.3982E-10  0.1069E-09  0.1506E-09
   19960.00    0.2818E-14  0.5733E-12  0.6091E-11  0.2098E-10  0.3926E-10  0.1056E-09  0.1486E-09
   19980.00    0.2754E-14  0.5702E-12  0.6034E-11  0.2074E-10  0.3874E-10  0.1043E-09  0.1465E-09
   20000.00    0.2692E-14  0.5671E-12  0.5978E-11  0.2051E-10  0.3820E-10  0.1030E-09  0.1446E-09
